Power [kW]
2140.3
2130.7
2119.3
2118.9
2128.6
2170.1
2200.4
2234.4
2139.9
2126.5
2051.3
2028.2
2134.4
2130.2
2123.1
2185.7
2223.5
2239.9
2247.4
2215.9
2177.7
2198.3
2186.9
2177.7
2168.5
2166.4
2158.8
2141.6
2141.6
2175.6
2234.8
2232.7
2158.8
2018.9
1892.5
1852.6
1787.9
1799.7
1970.2
2145.4
2206.3
2221.4
2223.1
2202.5
2189
2207.5
2202.5
2186.9
2175.6
2170.1
2160.9
2160.9
2168
2194.5
2219.3
2232.3
2131.9
1941.2
1832
1761.9
1748.9
1822.4
1992.5
2162.6
2196.6
2247.4
2246.2
2204.2
2185.7
2187.4
2190.7
2194.5
2192.8
2183.6
2168.5
2166.4
2169.7
2210
2310
2421.3
2459.5
2325.1
2176
2108
2083.2
2115.5
2273.9
2448.2
2465
2453.6
2412.5
2385.6
2353.7
2338.1
2298.7
2266.3
2264.6
2268.4
2257.1
2242
2224.7
2311.7
2381.8
2480.1
2441.9
2342.3
2223.1
2134.4
2123.1
2156.7
2285.2
2446.1
2474.6
2451.5
2417.9
2379.7
2340.2
2318
2278.1
2255
2223.5
2243.6
2217.2
2160.9
2185.7
2249.9
2338.1
2421.7
2391.5
2281.9
2155
2087
2073.5
2073.5
2196.6
2372.6
2400.7
2387.3
2352
2355.4
2302.4
2257.1
2123.1
2097.9
2071.9
2082.8
2170.1
2168
2164.7
2207.9
2294.9
2419.6
2397.4
2274.3
2204.2
2221
2249.9
2284
2311.7
2368.4
2394.8
2385.6
2345.7
2306.6
2256.7
2219.3
2194.9
2173.9
2168
2173.5
2170.6
2166.4
2185.3
2219.3
2276
2366.7
2362.9
2336.5
2274.3
2202.5
2126.5
2304.1
2500.7
2544.4
2540.2
2423.4
2327.2
2283.5
2232.7
2194.9
2173.9
2172.2
2160.9
2152.9
2135.7
2124.8
2118.9
2147
2205.8
2202.5
2147.5
2124.8
2122.7
2134.4
2179.4
2154.6
2185.3
2198.3
2218.9
2223.1
2219.3
2200.4
2189
2055.1
2050.9
2126.5
2137.8
2117.2
2115.1
2094.5
2096.2
2135.7
2160.9
2198.3
2372.2
2710.7
2822.4
2877
2793.4
2631.3
2642.6
2675
2582.6
2582.2
2434.7
2203.7
2172.2
2171.8
2153.3
2136.1
2141.6
2123.1
2142
2155
1502.8
2050.9
2264.6
2378
2365
2226.8
2137.8
2092.9
2073.5
2077.3
2191.1
2385.6
2435.2
2414.2
2366.7
2344.4
2298.7
2281.4
2249.5
2232.3
2194.9
2147.5
2168
2168
2194.9
2242
2311.7
2394.8
2387.7
2319.7
2209.6
2272.2
2260.9
2338.6
2381.8
2427.2
2400.7
2368.4
2319.2
2291.1
2281.9
2251.2
2236.5
2221.4
2192.8
2183.6
2179.8
2176
2192.8
2228.5
2326.8
2434.7
2398.6
2252.9
2138.2
2077.3
2070.2
2102.1
2213.8
2428.9
2453.6
2432.6
2396.9
2361.2
2298.2
2298.7
2266.3
2232.7
2194.9
2192.4
2170.1
2162.6
2160.9
2207.9
2291.1
2417.5
2417.9
2362.9
2257.1
2103.8
2226.8
2109.2
2331
2436.4
2425.1
2372.6
2326.8
2279.8
2242
2221.4
2211.7
2189.5
2192.8
2191.1
2171.8
2165.9
2189.5
2230.6
2294.9
2404.5
2376.4
2275.6
2172.2
2145.4
2145.8
2209.6
2317.6
2378
2366.7
2319.2
2302.4
2259.2
2213.4
2092.4
2060.5
2018.5
2074
2047.5
2069.8
2056.7
2058.8
2083.2
2124.8
1990.8
1901.8
2032.4
1924.4
1756
1739.6
1960.1
2039.5
2143.7
2158.8
2174.3
2162.6
2143.7
2130.7
2115.5
2102.1
2081.1
2073.5
2069.8
2058.8
2049.2
2070.2
2094.5
2128.6
2152.9
2113.9
2113.9
2107.6
2111.3
2117.2
2139.5
2157.1
2238.6
2226.8
2232.7
2217.2
2215.5
2181.5
2171.8
2149.1
2141.6
2145.8
2139.9
2128.6
2121
2134
2181.5
2281.4
2380.1
2387.7
2285.2
2162.6
2085.3
2030.3
2062.2
2143.7
2374.7
2436.8
2432.6
2400.7
2362.9
2317.6
2293.2
2240.3
2242
2213.8
2207.5
2197
2185.3
2194.9
2236.1
2330.6
2447.8
2423
2285.6
2149.6
2042
2041.6
2092.4
2183.6
2415.8
2470.9
2447.8
2408.3
2381.8
2241.5
2198.3
2187.4
2160.5
2158.8
2207.9
2194.9
2177.7
2179.8
2225.2
2317.6
2420
2376.4
2219.3
2160.9
2192.8
2100.4
2209.6
2359.1
2444.4
2464.6
2428.9
2391.1
2361.2
2325.1
2304.1
2268
2236.1
2215.5
2198.7
2192.8
2185.3
2196.6
2249.1
2320.9
2425.1
2391.5
2251.2
2098.7
2045.8
2013.1
2117.6
2273.9
2365
2455.3
2431
2387.3
2370.5
2347.8
2302.4
2290.7
2259.2
2241.5
2226.8
2223.1
2205.8
2224.7
2278.1
2355.8
2448.2
2457
2359.6
2249.5
2194.5
2342.3
2404.5
2462.9
2468.8
2461.2
2417.9
2385.6
2353.3
2298.7
2280.2
2257.1
2226.8
2222.6
2206.3
2204.2
2179.4
2191.1
2215.5
2276
2283.5
2293.2
2275.6
2272.2
2266.3
2272.2
2273.9
2273.9
2285.6
2292.8
2296.6
2300.3
2294.9
2279.8
2272.2
2221.4
2202.5
2194.9
2200.4
2162.6
2163
2155.4
2183.6
2260.9
2285.2
2224.7
2126.9
2083.2
2066
2049.2
2054.6
2104.2
2156.7
2205.8
2247.4
2260.9
2239.9
2223.5
2225.2
2194.9
2177.7
2164.3
2152.9
2145.4
2124.8
2132.8
2179.8
2251.6
2359.1
2461.6
2431
2425.5
2349.9
2331
2344
2389.4
2426.8
2406.2
2396.9
2372.2
2328.9
2306.2
2302.4
2266.3
2247.4
2242
2226.4
2225.2
2204.2
2207.9
2253.3
2327.2
2435.2
2459.1
2466.7
2433.1
2368.8
2353.3
2324.7
2375.9
2421.3
2419.6
2398.6
2336.5
2307.9
2268.8
2218.9
2202.1
2166.8
2151.2
2139.9
2130.2
2115.1
2128.6
2173.9
2247.4
2389.4
2434.7
2399
2334.8
2232.3
2196.6
2208.4
2202.5
2323
2383.9
2368.4
2338.1
2306.2
2260.9
2285.6
2260.9
2219.3
2198.3
2202.5
2183.6
2160.5
2185.7
2226.4
2321.3
2406.2
2414.2
2312.1
2227.3
2126.9
2130.7
2155
2232.7
2349.5
2398.6
2389.4
2357.5
2329.3
2287.3
2263
2226.8
2211.7
2191.1
2171.8
2186.9
2183.6
2190.7
2238.2
2315.9
2412.1
2391.1
2485.6
2461.2
2347.8
2404.5
2328.9
2351.6
2421.7
2394.8
2408.3
2366.3
2355.4
2323.4
2276
2253.3
2228.9
2209.6
2210
2210
2185.3
2200.4
2230.6
2276
2278.1
2181.5
2057.2
2011.4
1929.9
1850.9
1867.7
1971.9
2095
2205.8
2238.2
2249.5
2234.4
2217.6
2223.1
2192.8
2183.6
2179.4
2185.3
2181.5
2173.9
2186.9
2207.9
2245.7
2238.2
2138.2
2026.5
1886.6
1852.6
1850.5
1886.6
1962.2
2130.7
2238.2
2255.4
2213.4
2196.6
2196.6
2179.8
2157.1
2147.5
2213.2
2186.7
2183
2192.4
2194.3
2226.4
2283.1
2290.7
2222.6
2186.7
2152.7
2101.7
2058.2
2058.2
2107.4
2130
2177.3
2211.3
2207.5
2179.2
2175.4
2188.6
2198.1
2183
2156.5
2135.7
2111.1
2088.5
2105.5
2171.6
2245.3
2347.4
2441.9
2502.4
2526.9
2517.5
2532.6
2511.8
2470.2
2489.1
2472.1
2445.7
2381.4
2313.4
2286.9
2309.6
2296.4
2264.2
2230.2
2224.5
2211.3
2192.4
2183
2273.7
2366.3
2470.2
2523.2
2547.7
2549.6
2502.4
2494.8
2494.8
2509.9
2511.8
2496.7
2438.1
2377.6
2343.6
2319
2269.9
2288.8
2273.7
2243.4
2215.1
2203.7
2181.1
1657.5
1914.6
2337.9
2438.1
2523.2
2532.6
2530.7
2545.8
2477.8
2441.9
2436.2
2409.8
2430.5
2394.6
2336
2290.7
2251
2220.8
2203.7
2181.1
2154.6
2141.4
2122.5
2114.9
2109.2
2173.5
2305.8
2423
2472.1
2489.1
2436.2
2332.3
2218.9
2309.6
2205.6
2364.4
2458.9
2462.7
2402.2
2398.4
2349.3
2319
2290.7
2252.9
2232.1
2237.8
2215.1
2205.6
2198.1
2281.2
2421.1
2475.9
2447.6
2345.5
2406
2411.6
2349.3
2364.4
2296.4
2337.9
2441.9
2426.8
2379.5
2326.6
2292.6
2264.2
2239.7
2222.6
2222.6
2190.5
2183
2164.1
2169.7
2232.1
2277.5
2303.9
2232.1
2198.1
2177.3
2133.8
2073.3
2156.5
2133.8
2145.2
2162.2
2213.2
2205.6
2196.2
2196.2
2164.1
2152.7
2139.5
2131.9
2122.5
2111.1
2107.4
2111.1
2156.5
2196.2
2194.3
2124.4
2060.1
1975.1
1941
2043.1
2056.3
2105.5
2148.9
2190.5
2228.3
2218.9
2207.5
2192.4
2171.6
2162.2
2154.6
2148.9
2143.3
2126.3
2120.6
2139.5
2201.9
2296.4
2419.2
2440
2466.5
2451.3
2530.7
2528.8
2536.4
2504.3
2509.9
2472.1
2419.2
2356.8
2332.3
2285
2251
2243.4
2198.1
2164.1
2154.6
2147
2135.7
2137.6
2228.3
2326.6
2445.7
2496.7
2381.4
2330.4
2290.7
2356.8
2165.9
2101.7
2245.3
2400.3
2398.4
2356.8
2311.5
2298.2
2249.1
2224.5
2203.7
2188.6
2150.8
2147
2183
2192.4
2243.4
2337.9
2404.1
2349.3
2181.1
2054.4
1950.5
1959.9
2029.9
2090.3
2215.1
2375.7
2411.6
2347.4
2300.1
2268
2243.4
2237.8
2203.7
2169.7
2162.2
2154.6
2143.3
2154.6
2243.4
2362.5
2451.3
2451.3
2326.6
2264.2
2377.6
2234
2116.8
2156.5
2349.3
2392.7
2392.7
2349.3
2300.1
2260.4
2241.5
2243.4
2228.3
2220.8
2220.8
2201.9
2200
2218.9
2305.8
2404.1
2443.8
2375.7
2171.6
2063.9
1965.6
1961.8
2028
2111.1
2239.7
2440
2451.3
2436.2
2392.7
2356.8
2296.4
2235.9
2209.4
2190.5
2175.4
2167.8
2152.7
2164.1
2226.4
2271.8
2249.1
2232.1
2220.8
2200
2184.8
2137.6
2148.9
2207.5
2245.3
2275.6
2292.6
2288.8
2252.9
2237.8
2220.8
2205.6
2200
2137.6
2209.4
2194.3
2190.5
2183
2237.8
2286.9
2302
2196.2
2011
1806.8
1752
1655.6
1742.6
1823.9
2033.6
2243.4
2322.8
2311.5
2271.8
2266.1
2260.4
2245.3
2220.8
2215.1
2213.2
2143.3
2156.5
2184.8
2279.3
2396.5
2466.5
2430.5
2298.2
2126.3
2060.1
2080.9
2192.4
2334.2
2404.1
2470.2
2477.8
2440
2387.1
2330.4
2288.8
2283.1
2251
2230.2
2222.6
2213.2
2203.7
2215.1
2279.3
2383.3
2492.9
2557.2
2587.4
2591.2
2568.5
2564.7
2532.6
2525
2525
2517.5
2423
2411.6
2370.1
2322.8
2294.5
2269.9
2249.1
2243.4
2215.1
2188.6
2126.3
2130
2252.9
2337.9
2447.6
2508
2553.4
2536.4
2540.2
2523.2
2504.3
2487.2
2472.1
2466.5
2423
2370.1
2347.4
2292.6
2258.6
2247.2
2235.9
2220.8
2211.3
2217
2173.5
2169.7
2247.2
2339.8
2453.2
2506.1
2489.1
2415.4
2432.4
2305.8
2211.3
2283.1
2428.7
2434.3
2438.1
2419.2
2356.8
2313.4
2317.1
2285
2296.4
2258.6
2243.4
2198.1
2194.3
2198.1
2273.7
2389
2423
2432.4
2286.9
2137.6
2050.7
2024.2
2084.7
2133.8
2256.7
2436.2
2479.7
2436.2
2379.5
2345.5
2288.8
2319
2283.1
2262.3
2251
2249.1
2198.1
2158.4
2271.8
2343.6
2288.8
2160.3
2075.2
2094.1
2158.4
2211.3
2324.7
2326.6
2303.9
2302
2298.2
2288.8
2262.3
2245.3
2230.2
2222.6
2192.4
2177.3
2158.4
2156.5
2131.9
2139.5
2162.2
2220.8
2239.7
2269.9
2258.6
2234
2179.2
2179.2
2164.1
2130
2139.5
2201.9
2213.2
2217
2192.4
2181.1
2169.7
2162.2
2158.4
2141.4
2139.5
2169.7
2156.5
2167.8
2235.9
2336
2402.2
2506.1
2491
2502.4
2436.2
2319
2303.9
2334.2
2394.6
2481.6
2458.9
2415.4
2383.3
2313.4
2273.7
2262.3
2205.6
2192.4
2154.6
2175.4
2169.7
2184.8
2254.8
2375.7
2449.4
2447.6
2424.9
2360.6
2294.5
2209.4
2222.6
2207.5
2313.4
2421.1
2428.7
2419.2
2394.6
2343.6
2305.8
2283.1
2254.8
2222.6
2215.1
2200
2194.3
2194.3
2254.8
2353.1
2383.3
2343.6
2258.6
2158.4
2052.5
2012.9
2037.4
2101.7
2207.5
2351.2
2381.4
2360.6
2320.9
2271.8
2251
2237.8
2215.1
2177.3
2175.4
2162.2
2141.4
2152.7
2228.3
2351.2
2407.9
2434.3
2349.3
2332.3
2101.7
2011
2181.1
2337.9
2373.8
2409.8
2426.8
2406
2366.3
2322.8
2285
2256.7
2239.7
2226.4
2196.2
2031.8
2005.3
2029.9
2198.1
2381.4
2368.2
2315.3
2114.9
1995.8
1908.9
1859.8
1924
2018.5
2147
2319
2398.4
2375.7
2347.4
2298.2
2277.5
2258.6
2224.5
2209.4
2198.1
2167.8
2145.2
2143.3
2209.4
2273.7
2256.7
2082.8
1874.9
1682.1
1659.4
1627.3
1648.1
1757.7
1933.5
2147
2245.3
2286.9
2290.7
2258.6
2260.4
2224.5
2247.2
2239.7
2203.7
2184.8
2177.3
2126.3
2171.6
2264.2
2268
2148.9
2124.4
2107.4
2143.3
2258.6
2303.9
2309.6
2285
2275.6
2281.2
2277.5
2254.8
2235.9
2215.1
2205.6
2188.6
2181.1
2171.6
2156.5
2154.6
2162.2
2228.3
2337.9
2419.2
2498.6
2508
2511.8
2438.1
2207.5
1956.2
1976.9
2109.2
2283.1
2362.5
2326.6
2313.4
2307.7
2262.3
2254.8
2220.8
2177.3
2171.6
2158.4
2143.3
2148.9
2226.4
2336
2354.9
2305.8
2281.2
2266.1
2232.1
2288.8
2372
2432.4
2464.6
2472.1
2417.3
2349.3
2311.5
2269.9
2247.2
2243.4
2211.3
2184.8
2175.4
2164.1
2143.3
2160.3
2232.1
2332.3
2394.6
2409.8
2390.9
2322.8
2292.6
2249.1
2266.1
2385.2
2392.7
2336
2351.2
2303.9
2269.9
2218.9
2190.5
2190.5
2147
2120.6
2101.7
2086.6
2084.7
2107.4
2181.1
2281.2
2381.4
2441.9
2458.9
2498.6
2509.9
2525
2417.3
2428.7
2419.2
2419.2
2377.6
2375.7
2332.3
2290.7
2262.3
2228.3
2213.2
2186.7
2164.1
2181.1
2184.8
2188.6
2243.4
2368.2
2453.2
2504.3
2523.2
2532.6
2536.4
2525
2540.2
2500.5
2458.9
2432.4
2377.6
2351.2
2303.9
2266.1
2262.3
2226.4
2218.9
2198.1
2192.4
2175.4
2162.2
2162.2
2220.8
2273.7
2271.8
2247.2
2235.9
2211.3
2217
2224.5
2198.1
2175.4
2164.1
2171.6
2188.6
2186.7
2165.9
2152.7
2147
2156.5
2150.8
2122.5
2084.7
0
553.8
1071.6
2131.9
2194.3
2138.6
2008.8
1985.9
1970
2003.5
2111.3
2153.7
2159
2136
2127.2
2132.5
2129
2107.8
2090.1
2070.7
2061.8
2045.9
2038.9
2030
2015.9
2014.1
2021.2
2083
2185.5
2261.5
2335.7
2344.5
2348
2279.1
2063.6
1828.6
1848
1971.7
2134.3
2208.5
2174.9
2162.5
2157.2
2114.8
2107.8
2076
2035.3
2030
2017.7
2003.5
2008.8
2081.3
2183.7
2201.4
2155.5
2132.5
2118.4
2086.6
2139.6
2217.3
2273.8
2303.9
2310.9
2259.7
2196.1
2160.8
2121.9
2100.7
2097.2
2067.1
0
0
0
0
0
0
0
0
0
0
0
0
1226.8
2268.4
2304.5
2352
2535.1
2570.8
2629.2
2452
2202.1
2156.7
2145.8
2136.1
2111.3
2104.2
2096.6
2088.7
2094.5
2158.8
2289
2374.3
2347.4
2157.1
1966.4
1848.4
1797.6
1764
1746.8
1845.1
1982.8
2124.8
2268
2279.3
2230.2
2211.7
2207.9
2187.4
2151.2
2155
2164.7
2164.3
2162.6
2231
2342.3
2415.4
2391.1
2196.2
1998.4
1884.5
1773.2
1756
1843.4
1934.1
2047.1
2238.2
2276
2258.8
2221.4
2194.9
2166.4
2132.3
2113
2113.4
2098.3
2090.3
2079.4
2135.7
2179.4
2200.8
2192.8
2143.7
2085.3
2107.6
2100
2066
2124.4
2068.5
2120.6
2138.2
2136.1
2143.7
2121.4
2108
2096.6
2094.5
2084.9
2084.9
2077.3
2075.2
2066.4
2128.6
2156.7
2177.7
2147.5
2126.9
2111.8
2067.7
2094.1
2087
2003.4
1996.3
2113.4
2095
2130.2
2160.9
2139.9
2132.3
2123.1
2118.9
2109.7
2092.9
2071.9
2074
2064.3
2147.9
2283.5
2368.8
2300.8
2263
2139.9
1939.6
2022.7
2055.1
2017.3
2062.2
2137.8
2134
2215.5
2217.2
2176
2143.7
2143.7
2110.1
2083.2
2070.2
2055.1
2053
2053
2117.2
2247.4
2338.6
2423.8
2385.6
2213.8
2478
2839.6
2499.4
2428.9
2281.4
2448.2
2198.3
2249.5
2272.2
2236.5
2217.6
2228.5
2211.7
2176
2173.9
2170.1
2164.7
2162.6
2240.3
2365
2434.7
2357
2164.7
1990.8
1867.7
1837.5
1767.4
1794.2
1835.4
1986.6
2102.1
2251.2
2281.9
2238.2
2239.9
2232.3
2209.6
2179.8
2190.7
2172.2
2173.9
2183.6
2252.9
2347.4
2425.5
2366.7
2219.3
2051.3
1916.9
1843.4
1780.8
1754.3
1867.7
1996.3
2153.3
2280.2
2291.1
2255.4
2223.1
2219.3
2218.9
2198.3
2190.7
2170.1
2166.8
2162.6
2204.2
2310
2370.5
2376.4
2359.1
2338.6
2408.3
2431
2449.9
2436.8
2438.5
2421.7
2351.6
2292.8
2293.2
2228.5
2221
2194.9
2173.9
2153.3
2150.8
2132.3
2117.2
2108
2170.1
2213.8
2223.1
2223.1
2225.2
2203.7
2196.6
2211.3
2181.1
2171.8
2162.6
2121
2079.4
2109.7
2145.4
2121
2108
2098.3
2100.4
2079.8
2094.5
2077.7
2073.5
2071.9
2139.5
2200.4
2202.1
2079.4
1866.1
1680.8
1525.4
1423.8
1404.9
1427.6
1518.3
1709
1882.9
2085.3
2162.6
2145.8
2149.1
2164.3
2170.1
2155
2157.1
2155
2145.4
1514.5
2155
2281.9
2399
2338.6
2149.1
1981.1
1864
1793.8
1765.3
1758.5
1790.5
1961.8
2089.1
2228.5
2291.1
1364.6
2158.4
2160.9
2151.2
2115.1
2108
2088.7
2071.9
2079
2162.6
2264.6
2381.8
2339.8
2164.3
2128.6
2168
2196.6
2089.1
2020.6
1956.4
1937.9
2041.6
2211.7
2247.8
2223.1
2190.7
2183.6
2168
2147.5
2143.7
2171.8
2162.6
2160.9
2239.9
2328.9
2361.2
2283.5
2153.3
2013.1
1816.9
1843.4
2225.2
2365
2370.5
2307.9
2283.5
2253.7
2253.3
2198.7
2176
2168
2143.7
2104.2
2117.2
2107.6
2092.9
2098.3
2177.3
2259.2
2359.1
2383.9
2419.2
2375.9
2359.6
2293.2
2589.7
2722
2635.1
2722
2997.5
2988.7
2952.6
2899.7
2748.5
2510.8
2349.5
2117.2
2100
2079.4
2085.3
2102.1
2171.8
2223.1
2344
2396.9
2364.6
2317.6
2197
2189
2279.8
2255.4
2230.6
2141.6
2166.4
2186.9
2194.5
2176
2147.5
2121
2096.2
2077.3
2068.1
2058.4
2053
2077.3
2149.6
2192.8
2202.5
2051.3
1849.3
1601.5
1465.4
1420
1512.4
1588
1554
1760.2
2060.5
2111.3
2151.2
2153.3
2153.3
2136.5
2126.9
2123.1
2115.1
2098.3
2090.3
2087
2147.5
2198.3
2170.1
2000
1767.8
1592.2
1449.8
1374.2
1384.3
1395.7
1447.7
1631.3
1828.3
2037.8
2117.2
2117.2
2111.8
2111.3
2096.2
2074
2074
2043.3
2032
2041.6
2098.3
2215.5
2315.5
2385.6
2387.3
2367.1
1992.5
1971.9
1886.6
2008
2134.4
2090.8
2181.5
2181.5
2209.6
2183.2
2168.5
2145.8
2118.9
2088.7
2081.5
2060.9
2058.4
2062.6
2130.2
2232.7
2296.6
2211.7
2055.1
2171.8
2039.9
2294.9
2253.3
2359.6
2323.4
2087
2221
2232.7
2228.9
2187.4
2179.4
2147.5
2151.2
2118.9
2122.7
2149.1
2132.3
1514.1
2043.3
2296.6
2326.8
2266.3
2072.3
1856.4
1724.1
1671.2
1642.6
1652.3
1733.8
1835.8
2009.3
2138.2
2202.5
2164.7
2149.6
2117.2
2105.9
2071.9
2068.1
2088.7
2087
2092.9
2184.8
2272.2
2319.7
2200.4
2117.2
2314.2
2190.7
2213.4
2241.5
2253.3
2368.8
2646.8
2733.4
2799.7
2782.5
2714.5
2670.8
2606.5
2569.1
2542.3
2583.8
2569.1
2557.4
2580.5
2629.2
2669.1
2661.5
2640.5
2678.8
2688
2716.1
2727.9
2697.7
2784.6
2761.5
2816.5
2771.2
2846.8
2848.4
2806.9
2793.8
2797.6
2792.2
2765.3
2754.4
2691.8
2671.2
2631.3
2365
2187.4
2149.1
2022.7
1803.5
1597.7
1574.6
1430.9
1442.3
1427.6
1491.4
1661.9
1843
2032
2128.6
2107.6
2102.5
2081.5
2081.1
2083.6
2087
2068.1
2066.4
2066.4
2124.8
2164.7
2104.2
1960.6
1777
1584.2
2007.6
1915.2
2073.5
2361.2
2436.4
2595.2
2556.1
2609
2608.6
2605.3
2574.6
2268.4
2082.8
2066
2045.8
2043.3
2037.8
2049.2
2121.4
2219.3
2223.1
2206.3
2400.7
2207.9
2166.4
2234.8
2431
2468.8
2544.4
2682.5
2831.2
2924
2984.9
2927.8
2874.9
2712.8
2663.2
2582.2
2561.6
2527.1
2496.9
2508.7
2606.5
2731.7
2805.2
2848.9
2722
2797.6
2825.8
2791.7
2809
2805.2
2502.8
2349.9
2307.9
2247.8
2226.8
2183.2
2155.4
2152.9
2108
2081.5
2081.1
2068.5
2053
2053
2104.2
2239.9
2313.8
2333.1
2364.6
2276
2245.7
2206.3
2283.5
2287.3
2329.3
2310
2245.7
2236.1
2223.5
2183.2
2168.5
2145.8
2116.8
2085.3
2081.5
2075.6
2073.5
2083.2
2143.7
2256.7
2357.5
2373.8
2401.1
2349.9
2378.5
2375.9
2346.1
2347.8
2344
2325.5
2285.6
2239.9
2226.8
2198.3
2177.7
2151.2
2139.9
2113.4
2098.3
2100
2092.9
2098.3
2164.7
2263
2310
2385.2
2366.7
2319.7
2270.5
2344
2750.2
2523.8
2583.8
2614.1
2631.3
2608.6
2676.7
2616.2
2542.7
2512
2482.2
2366.7
2100
2089.1
2079
2087
2134
2170.1
2185.3
2323
2192.8
2002.1
1916.9
1875.7
1865.6
1943.3
1968.1
2117.2
2306.2
2475.9
2521.7
2466.7
2431
2319.7
2096.6
2088.7
2079.4
2071.9
2068.5
2063.9
2115.1
2151.2
2108
1916.9
1743
1689.7
1952.6
2000.5
2018.9
2172.2
2272.2
2434.7
2616.6
2763.6
2799.7
2672.9
2569.1
2502.4
2298.7
2105.9
2101.7
2085.3
2075.6
2083.2
2156.7
2225.2
2425.5
2544.4
2402.8
2540.6
2599.4
2638.4
2729.6
2750.2
2892.1
3032.4
3128.6
3147.5
3155
2960.2
2846.8
2778.7
2759.8
2680.4
2654
2648.5
2633.4
2663.2
2771.2
2895.9
2980.7
2960.2
2835.4
2812.7
2807.3
2765.7
2887.9
2884.6
2992.1
3054.7
2954.3
2833.7
2820.3
2752.3
2699.3
2633
2644.3
2589.7
2461.6
2183.2
2168.5
2173.9
2234.4
2319.7
2470.9
2729.6
2599
2519.6
2485.6
2510.8
2642.6
2663.2
2776.6
2937.5
2998
3082.8
3116.8
3020.6
2850.5
2771.6
2729.6
2675
2625.4
2389.8
2136.1
2123.1
2194.9
2240.3
2510.3
2659.9
2495.2
2385.2
2289
2293.2
2302.4
2506.6
2659.4
2642.2
2716.1
2746.4
2695.6
2644.3
2659.9
2651.9
2622.1
2600.6
2578.4
2540.2
2552.3
2508.2
2555.7
2659.4
2735
2795.5
2861.9
2845.1
2928.2
2825.8
2894.2
2898
2848.4
3045.4
2911
3043.3
3064.3
3141.6
2939.6
2833.7
2740.9
2671.2
2595.6
2548.6
2500.7
2452
2493.1
2506.6
2474.6
2440.2
2497.3
2548.1
2527.1
2508.2
2669.1
2718.2
2751.8
2753.9
2920.3
3094.6
3151.3
3092.5
3071.5
2969.8
2935.4
2763.6
2699.3
2638.9
2608.6
2581.7
2502.8
2200.4
2489.3
2289.4
2142
2035.7
2005.9
1960.6
1964.3
2002.1
2075.6
2264.6
2396.5
2414.2
2129
2115.1
2107.6
2109.2
2100.4
2079.4
2064.3
2056.3
2050.9
2053
2115.1
2205.8
2294.9
2360.8
2412.5
2603.2
2720.3
2846.8
3169.7
3475.9
3325.1
3111.4
3016.9
2942.9
2912.7
2748.5
2608.6
2527.1
2427.2
2147.9
2139.9
2166.4
2321.3
2574.2
2617.9
2670.8
2731.7
2657.8
2423.4
2349.5
2410
2049.6
2257.1
2307.9
2380.1
2486
2620.4
2720.3
2752.7
2663.2
2599.4
2529.2
2381.8
2137.8
2096.2
2074
2056.7
2054.6
2130.2
2200.4
2330.6
2536.8
2508.2
2569.1
2550.2
2591.8
2743
3192.8
3096.7
2637.2
2642.6
2585.9
2570.8
2482.2
2166.8
2143.7
2134.4
2100
2079.4
2081.1
2066
2074
2152.9
2232.3
2257.1
2131.9
2020.6
1965.6
2043.7
2104.2
1947.1
2028.2
1913.1
2139.5
2153.3
2147.5
2251.2
2211.3
2189
2153.3
2134
2110.1
2092.4
2083.2
2069.8
2079
2149.1
2236.1
2325.1
2270.1
2263
1867.7
1773.2
1665.3
1701.4
1697.6
1677.1
1790
1981.1
2572.5
2289.4
2198.7
2171.8
2143.7
2117.2
2096.6
2084.9
2079.4
2068.1
2077.3
2162.2
2185.3
2094.5
1856.4
1699.3
1507
1448.2
1465.4
1546
1971.9
2038.3
2113
2277.7
2476.3
2555.7
2389.8
2166.4
2128.1
2109.7
2102.1
2077.7
2066
2058.4
2071.9
2135.7
2124.8
2058.4
1892.5
1826.6
1984.9
1941.7
1862.3
2192.8
2284
2321.3
2444.4
2515.8
2542.3
2542.7
2455.7
2170.1
2132.8
2113.4
2103.8
2084.9
2079
2071.9
2075.6
2143.7
2228.5
2281.9
2442.3
2493.5
2181.5
2119.3
2591.4
2504.5
2368.4
2563.3
2393.2
2563.3
2583.8
2625.4
2417.9
2211.7
2173.5
2141.6
2119.3
2111.3
2090.8
2092.9
2096.2
2168.5
2206.3
2580.1
2479.7
2446.1
2450.3
2497.3
2459.1
2788
2812.7
2790.1
2929.9
2990.4
2992.1
3075.7
2982.8
2843
2772.8
2702.7
2646.8
2610.3
2370.5
2149.6
2108
2155
2242.4
2753.9
2655.7
2682.1
2744.7
3016.9
2306.6
2209.6
2202.1
2260.9
2417.9
2497.3
2629.2
2698.9
2642.6
2608.2
2476.7
2378
2158.8
2115.5
2079.4
2081.1
2082.8
2145.8
2228.9
2341.9
2564.9
2502.8
2585.9
2461.2
2366.7
2380.1
2408.3
2512.4
2408.3
2489.3
2461.2
2538.5
2496.9
2219.3
2153.3
2137.8
2111.3
2098.3
2085.3
2077.3
2077.3
2160.9
2198.7
2491.4
2447.8
2359.1
2523.4
2338.1
2349.9
2234
2223.5
2370.5
2652.3
2725.8
2684.6
2624.2
2549.8
2512
2308.3
2158.8
2126.5
2096.6
2088.7
2087
2092.9
2132.3
2139.9
2062.2
2206.3
2153.3
2137.8
2264.6
2102.1
1998.4
1986.6
2200.4
2465
2341.9
2531.3
2585.9
2442.3
2353.7
2173.9
2158.8
2126.9
2122.7
2120.6
2092.4
2091.2
2155
2166.8
2094.1
2218.9
2228.5
2423.4
2108
1990.4
1982.8
2039.5
2135.7
2287.3
2459.1
2582.6
2651.9
2631.7
2590.1
2564.9
2470.9
2423.4
2387.3
2349.5
2338.1
2328.9
2393.2
2423
2508.2
2557.4
2536.8
2480.5
2442.3
2465
2561.2
2446.1
2470.9
2576.3
2705.2
2774.5
2852.2
2784.6
2727.9
2688
2652.3
2610.7
2591.8
2576.7
2565.4
2523.4
2557.4
2610.7
2716.6
2716.1
2699.3
2740.9
2706.5
2385.6
2453.6
2468.8
2629.6
2888.3
2935.8
2996.3
2879.1
2822.4
2784.6
2756
2740.9
2701
2691.4
2669.5
2644.7
2614.5
2661.5
2735
2833.3
2912.7
2731.7
2676.7
2646.4
2856
2864
2623.3
2806.9
2767.8
2604.4
2633.4
2709
2584.3
2523.8
2483.9
2446.5
2391.5
2331
2317.6
2123.1
982.8
1820.7
2164.3
2559.1
2651.9
2593.5
2444.4
2366.7
2349.5
2360.8
2385.6
2431
2514.1
2625.8
2731.3
2805.2
2788
3011.4
2956.4
2551.9
2217.6
2691.4
2621.6
2593.5
2572.9
2593.9
2633
2735.5
2898
2604.4
2502.8
2459.1
2564.9
2805.2
2765.3
2824.1
2886.7
3011.4
3077.8
2986.6
2807.3
2751.8
2691.8
2657.8
2654
2635.1
2606.5
2566.6
2533
2582.2
2572.9
2722
2557.8
2540.6
2553.6
2557.4
2605.3
2602.7
2655.7
2661.1
2684.2
2557.8
2652.3
2636.8
2601.1
2568.7
2554
2530.9
2510.3
2517.9
2525.5
2538.9
2570.8
2642.6
2669.1
2641
2648.5
2531.3
2516.2
2536.8
2873.2
2784.6
2701.4
2758.1
2746.8
2877
3039.5
3155
3196.2
3177.7
3090.4
2759.8
2746.4
2746.4
2722
2718.2
2725.8
2803.1
2961.8
3323.5
3315.9
3290.7
3251.2
3132.4
2998.4
2952.6
3197.9
3294.5
3436.9
3154.6
3241.6
3302.5
3236.1
3190.7
3158.4
2761.9
2743
2714
2703.1
2688.4
2693.9
2758.1
2803.1
3124.8
3245.8
3088.7
3073.6
3071.9
2916.9
2999.6
3079.4
3056.8
3226.9
3088.7
3130.3
3162.6
3084.9
2813.2
2738.8
2654.4
2540.6
2499
2487.7
2616.2
2599.4
2194.9
2642.2
2724.1
2750.2
2582.2
2297
2304.5
2287.3
2401.1
2481.8
2491
1669.1
2739.2
2719.9
2703.1
2670.8
2623.7
2219.3
2164.3
2098.7
2096.6
2075.2
2063.9
2063.9
2149.1
2170.1
2302.4
2474.6
2319.2
2243.6
2221.4
2208.4
2215.5
2247.8
2313.8
2412.1
2501.1
2631.3
2709
2676.7
2548.1
2465
2419.6
2364.6
2283.1
2105.9
1973.6
1688
2351.6
2349.9
2366.7
2427.2
2480.1
2506.6
2287.3
2232.7
2272.6
2332.7
2449.9
2580.5
2663.6
2716.6
2697.2
2676.7
2584.3
2514.1
2483.9
2453.6
2431
2419.6
2417.9
2425.5
2472.5
2474.6
2468.8
2570.8
2572.5
2661.5
2788
2688.4
2807.3
3094.1
2952.2
2911
3032
3050.9
3100
3063.9
3056.8
2990.4
2720.3
2704.8
2710.7
2701.4
2701.4
2693.5
2746.8
2729.6
2688
2724.1
2759.4
2710.7
2608.6
2769.5
2635.1
2569.1
2702.7
2777
2931.6
3100
3190.7
3200.4
3175.6
3033.7
2765.3
2744.7
2730
2701
2693.9
2695.6
2769.1
2837.5
2975.3
3290.7
3249.5
2833.7
2769.5
2723.7
2705.2
2697.2
2689.7
2633.4
2601.1
2542.7
2542.7
2514.1
2533
2525.5
2480.1
2461.2
2459.5
2415.8
2434.7
2421.7
2508.2
2588
2668.7
2721.6
2774.9
2722
2810.6
2622.1
2413.7
2769.5
2845.1
2916.5
3050.9
3135.7
3223.1
3198.7
3170.2
3039.1
2760.2
2688
2584.3
2455.7
2410.4
2417.9
2431
2497.3
2518.3
2487.7
2493.5
2376.4
2393.2
2297
2126.5
2129
2206.3
2340.2
2346.1
2415.8
2520
2500.7
2455.7
2315.9
2238.2
2196.6
2171.8
2143.7
2137.8
2139.9
2204.2
2300.3
2534.7
2542.3
2549.8
2595.6
2548.1
2527.1
2547.7
2582.2
2565.4
2580.1
2538.9
2491.4
2465
2450.3
2357.5
2242
2232.7
2181.5
2173.9
2130.7
2121
2138.2
2202.1
2238.2
2453.6
2417.9
2290.7
2283.5
2259.2
2200
2253.3
2355.4
2642.6
2536.8
2786.3
2621.6
2646.4
2635.1
2533
2488.1
2459.1
2427.6
2389.4
2287.3
2145.4
2134
2202.5
2190.7
2104.2
1894.2
1748.5
1913.1
2026.5
2022.7
1793.8
1833.7
1973.6
2096.2
2247.4
2427.2
2551.9
2559.9
2482.2
2431
2406.6
2240.3
2181.5
2151.2
2145.8
2151.2
2191.1
2313.8
2393.2
2205.8
2139.9
2088.7
2039.5
2018.9
2039.9
2087
2100.4
2341.9
2360.8
2570.8
2659.9
2648.1
2655.7
2661.5
2657.8
2610.3
2514.1
2475.9
2447.8
2432.6
2476.3
2504.9
2508.2
2467.1
2417.9
2451.5
2514.5
2476.7
2468.8
2468.8
2604.8
2722
2832.1
2984.5
3097.9
2795.9
2761.9
2750.6
2742.6
2703.1
2672.9
2656.1
2644.3
2658.2
2738.8
2788
2825.8
3045
2958.1
2929.9
2897.6
2875.3
2859.8
2869.4
2965.6
3208
3136.1
3203.8
3288.6
3263
3181.5
2829.5
2807.3
2767.4
2753.9
2743
2733.4
2745.1
2862.3
3232.3
3328.9
3376
3356.6
3319.3
3188.6
3143.3
3066.4
3134
3302.5
3300.4
3357.1
3378.1
3326.8
3234
3224.3
3096.2
2865.7
2848.4
2852.2
2818.6
2818.2
2810.6
2935.8
3216.8
3326.8
3362.9
3349.5
3184.9
3126.5
3103.4
2962.3
3155
3309.6
3343.6
3270.5
3315.9
3289
3208
2899.3
2814.4
2782.5
2731.7
2726.2
2676.7
2650.2
2601.1
2638.9
2725.8
2791.7
2744.7
2635.5
2731.7
2719.9
2697.7
2727.9
2782.5
2901.4
2982.8
3139.5
3114.7
3079
2880.8
2861.9
2842.6
2816.1
2799.7
2774.9
2765.3
2744.3
2719.9
2758.1
2776.6
3016.9
3009.3
2965.6
2918.6
2850.5
2848.4
2753.9
2733.4
2843
2793.8
3024.4
3128.6
3196.6
3173.5
3139.9
3071.5
2827.4
2812.7
2809
2801.4
2801.4
2782.5
2839.2
2825.8
2733.4
2958.1
2882.9
2884.6
2740.9
2744.7
2719.9
2735
2833.7
2872.8
3242
3208
3162.6
3156.7
3121
2969.4
2805.2
2799.3
2761.9
2599.4
2667
2659.9
2684.6
2655.7
2779.1
2877
2905.1
2888.3
2824.5
2795.5
2801
2731.7
2765.3
2737.1
2691.4
2606.5
2576.3
2529.2
2504.5
2453.6
2243.6
2211.7
2202.5
2166.4
2172.2
2162.6
2239.9
2300.3
2483.9
2670.8
2638.9
2591.4
2574.6
2595.2
2667
2656.1
2650.2
2606.9
2568.7
2563.3
2565.4
2536.8
2509.9
2493.1
2349.9
2219.3
2198.7
2194.9
2185.3
1682.5
2110.1
2570.8
2551.9
2514.1
2510.3
2404.5
2423.4
2419.6
2242
2289.4
2304.5
2349.9
2496.9
2599
2603.2
2515.8
2485.6
2457.4
2432.6
2406.2
2394.8
2370.5
2362.9
2359.1
2431
2491.4
2525.5
2519.6
2478
2404.9
2117.2
2202.5
2234.4
2480.1
2563.3
2535.1
2510.3
2470.9
2498.6
2514.1
2499
2449.9
2433.1
2395.3
2383.9
2362.9
2366.7
2240.3
2396.9
2474.6
2542.7
2580.5
2576.7
2593.1
2587.6
2444
2503.2
2419.2
2446.1
2428.9
2536.8
2602.7
2686.3
2674.6
2643.1
2582.2
2542.3
2523.4
2535.1
2515.8
2502.8
2517.9
2591.4
2602.7
2527.1
2672.5
2729.2
2831.6
2710.7
2743
2642.6
2553.6
2638.9
2542.3
2344
2463.3
2580.5
2601.5
2567
2565.4
2556.1
2436.4
2391.5
2348.2
2336.5
2319.2
2378
2366.7
2312.1
2193.2
2147.9
2102.1
2074
2108
2156.7
2383.5
2236.5
2181.5
2323.4
2472.5
2597.3
2584.3
2569.1
2557.4
2514.1
2529.2
2514.1
2518.3
2504.9
2485.6
2569.1
2640.5
2712.4
2871.5
2844.7
2635.1
2618.3
2756
2932
2840.9
2895.9
2994.2
3086.6
3300.4
3296.6
3226.9
3179.4
3063.9
2869.4
2869
2848.4
2824.1
2816.9
2818.2
2916.9
3262.6
3319.7
3353.3
3302.5
3100
2933.7
3141.2
2965.6
3073.6
2879.1
2935.4
3050.5
3118.9
3189.1
2906.8
2831.6
2801
2746.8
2724.1
2712.4
2680.9
2640.5
2633
2667.4
2727.9
2788.4
2675
2603.2
2601.1
2714.5
2699.3
2739.2
2746.4
2880.8
2895.9
2967.7
3062.6
2956.4
2952.6
2924
2878.7
2816.5
2790.1
2767.4
2748.5
2742.6
2735
2839.2
3102.1
3118.9
3168.5
3181.1
3029.9
3001.7
3011.4
3064.3
3130.3
3079
3192.8
3305.8
3379.7
3432.7
3400.3
3347.8
3273.9
3252.9
3243.7
3202.1
3160.5
3135.7
3131.9
3189.1
3242
3291.1
3251.2
3123.1
3028.6
2979.1
2971.5
2973.6
3173.9
3275.6
3251.2
3339.8
3418
3423
3374.3
3339.8
3302.5
3269.7
3249.1
3130.7
2818.2
3551.9
3406.2
3434.3
3372.2
3071.9
2603.2
2578.4
2294.9
2209.6
2264.2
2221.4
2272.2
2378.5
2411.6
2591.8
2606.9
2714.5
2735.5
2712.8
2718.2
2725.8
2725.8
2739.2
2719.9
3016.9
2627.9
2954.3
2765.7
2739.2
2856.4
2790.1
2703.1
2809
2712.8
2935.4
3028.2
2990.4
2969.4
2984.9
3022.7
3115.1
2880.8
2792.2
2784.2
2761.9
2752.3
2724.1
2726.2
2723.7
2752.7
2848.9
3234.4
3306.2
3359.2
3291.1
3218.9
3262.6
3134
3056.8
3124.4
3279.4
3485.6
3376
3300.4
3281.9
3192.4
3147.5
3109.7
3053
2967.7
2933.7
2914.8
2911
2918.6
2993.8
3052.6
3145.4
3211.3
3177.3
3135.7
3203.8
3198.3
3344
3183.2
3334.4
3394.9
3162.6
3351.6
3249.5
3268
3201.7
3155
3094.1
3001.7
2735
2699.3
2646.8
2636.8
2671.2
2750.6
2822
2992.5
2935.8
2799.3
2706.9
2871.5
3032
2854.7
3097.9
3130.7
3071.9
2786.3
2754.4
2718.2
2559.1
2536.8
2633
2661.1
2659.4
2657.3
2669.1
2682.5
2742.6
2848.9
2871.1
2886.7
2845.1
2892.1
2882.9
2926.1
2966
2927.8
2977.4
2950.5
2950.9
2910.6
2899.7
2867.3
2856.4
2818.2
2807.3
2771.2
2767.4
2735.5
2729.6
2733.8
2795.5
2899.3
2927.8
3213.4
3351.2
3281.5
3273.9
3200.4
3292.8
3221
3255.4
3281.5
3273.9
3151.3
3238.2
3207.5
3166
3128.6
3100
3064.3
2994.2
2716.1
2697.7
2672.9
2674.6
2671.2
2629.6
2672.9
2724.1
2725.8
2761.9
2771.6
2750.2
2801.4
2861.9
3113
3111.4
3105.9
3121
3124.8
3115.1
3107.2
3115.1
3115.6
3128.6
3118.5
3107.6
3118.5
3162.2
3211.7
3166
3137.8
3032
2816.5
2729.6
2731.3
2680.4
2646.4
2792.2
2893.8
3049.2
3071.9
3188.6
3217.2
2882.5
2864
2845.1
2839.6
2827.9
2818.2
2791.7
2797.6
2882.5
3149.2
3217.2
3107.6
2969.8
2880.8
2812.7
2795.5
2830
2888.3
3014.8
3135.7
3166
3194.5
3279.8
3274.3
3230.2
3132.4
2875.3
2850.5
2850.5
2814.8
2818.6
2808.5
2887.9
3211.7
3468.8
3492.7
3464.6
3285.2
3381.4
3515.8
3389
3451.1
3443.6
3568.7
3664.9
3708.6
3657.8
3377.6
3239.5
3160.5
2879.1
2858.1
2837.5
2786.7
2738.8
2686.3
2740.9
2807.3
2833.7
2731.3
2606.9
2625.4
2778.7
2790.1
2806.9
2793.4
2810.6
2912.7
2974.9
3016.4
3132.4
2864
2788.4
2761.5
2685.9
2638.9
2617.9
2586.4
2563.3
2542.3
2591.4
2665.3
2771.2
2620
2493.5
2654
2705.2
2795.5
2994.2
2999.6
3092.9
3084.9
3166
3154.6
3156.7
3156.7
3088.7
2810.6
2756
2708.6
2705.2
2697.2
2686.3
2685.9
2744.7
2805.2
2927.8
3100
3111.4
3045
2916.5
2767.4
2809
2827.9
2935.4
2927.8
2975.3
3205.9
3198.7
3187
2990.4
2841.3
2727.5
2707.3
2689.7
2654
2661.5
2646.4
2667.4
2684.6
2653.6
2678.8
2665.3
2685.9
2688
2671.2
2668.7
2656.1
2629.6
2612.4
2595.6
2580.1
2621.6
2651.9
2648.5
2608.6
2574.6
2572.9
2657.3
2658.2
2605.3
2599.4
2667.4
2712.8
2720.3
2697.7
2669.1
2509.9
2500.7
2583.8
2402.4
2712.4
2736.7
2684.2
2601.1
2604.8
2695.6
2744.3
2733.4
2716.1
2671.2
2625.4
2589.7
2546
2508.2
2502.8
2525.5
2557.4
2606.5
2557.8
2455.3
2601.1
2616.2
2431
2591.4
2587.6
2693.9
2482.2
2531.3
2654
2776.6
2809
2769.1
2712.4
2684.2
2622.1
2614.1
2584.3
2563.3
2583.8
2642.6
2675
2772.8
2773.3
3011
2926.1
2880.8
2765.3
2950.5
2774.9
2975.7
3343.6
3052.6
3092
3239.5
3220.6
3200.4
3170.2
2945.5
2867.3
2858.1
2827.9
2895.9
2385.6
2906.8
3137.8
3168.1
3119.3
3103.8
2919
2918.6
2977.4
3013.1
2918.6
2886.2
2890
3079
3092.5
3155
3158.8
3108
2927.8
2752.3
2710.7
2669.1
2627.5
2606.5
2588
2638.9
2705.2
2782.1
3028.2
3003.8
2950.5
2961.8
2945
2861.5
3024.4
3020.6
3045
3062.2
3156.7
3171.8
3123.1
3090.8
3094.1
3033.7
2998
2879.1
2686.3
2650.6
2589.7
2599
2604.4
2580.5
2432.6
2262.5
2151.2
2098.3
2111.3
2083.2
2143.7
2357
2604.4
2657.8
2780.8
2835
2840.9
2805.2
2748.5
2699.3
2654.4
2633.4
2631.3
2631.3
2669.1
2769.1
2757.7
2742.6
2677.1
2678.3
2669.1
2559.5
2714.5
2557.4
2361.2
2128.6
2404.5
2486
2582.2
2669.1
2674.6
2637.2
2629.6
2641
2625.4
2633
2614.1
2599.4
2595.6
2625.8
2614.5
2567
2491.4
2370.5
2574.6
2704.8
2517.5
2467.1
2525.5
2637.2
2691.8
2829.5
2966
3058.4
2969.4
2826.2
2801
2799.7
2788
2767.4
2740.5
2733.4
2744.7
2801.4
3075.2
3168.1
3158.4
3065.6
3026.5
2986.6
2926.6
2962.3
3128.2
3347.8
3203.8
3251.2
3252.9
3268
3228.5
3198.3
3118.5
2858.1
2837.5
2814.4
2805.2
2805.6
2809
3060.1
3266.3
3344
3304.1
3247.4
3270.1
3257.1
3309.6
3284.8
3234
3330.6
3364.6
3366.7
3445.7
3500.7
3466.7
3434.8
3402.8
3385.2
3394.9
3290.7
3221
2797.6
2819.9
2912.7
3410
3474.2
3521.7
3493.1
3411.7
3290.7
3281.9
3262.6
3562.9
3625.4
3630.9
3529.3
3500.7
3521.7
3481.8
3464.6
3417.1
3385.2
3315.5
3273.9
3234
3251.6
3243.7
3327.2
3355.4
3449.5
3433.1
3449.5
2907.2
3071.5
3158.8
2935.4
2999.6
3062.2
3124.8
3345.7
3358.7
3340.3
3289.4
3247
3217.2
3208
3179.4
3168.1
3160.5
3131.9
3094.1
3133.6
3189.1
3203.8
3081.1
2916.9
2835.4
2760.2
2697.7
2699.3
2699.8
2739.2
2814.4
2981.2
3141.6
3192.8
2971.1
2856
2795.5
2769.1
2724.1
2701
2631.3
2620
2588
2617.9
2576.7
2578.4
2610.3
2602.7
2882.5
2953
2998
3056.3
2998
2656.1
2339.8
2525.5
2723.7
2852.2
2875.3
2884.6
2850.5
2829.5
2809
2806.9
2777
2752.3
2712.4
2752.3
2704.8
2665.3
2774.9
2744.7
2648.1
2576.3
2474.2
2533
2569.1
2822
2869.4
2969.8
3050.9
3120.6
3164.3
3139.9
3018.5
2833.3
2805.2
2795.9
2797.6
2777
2786.3
2824.1
2850.5
2880.8
3162.2
3137.8
2952.6
2933.7
3032
3109.3
2984.9
3168.1
3009.3
3088.3
3120.6
3156.7
3117.2
2937.5
2816.1
2794.3
2759.8
2742.6
2737.1
2722.4
2729.6
2784.6
2850.5
2935.8
3319.3
3402.4
3381.8
3230.6
3377.6
3355
3192.8
2977
3194.5
3411.7
3198.3
3319.7
3310
3298.3
3256.7
3237.8
3192.4
3166.4
3131.9
3116.8
3131.9
3185.3
3279.8
3345.7
3455.3
3451.1
3413.8
3362.5
3334.4
3320.9
3311.7
3294.9
3228.5
3347.4
3283.6
3238.2
3152.9
3109.3
2816.5
2674.6
2631.3
2582.2
2523.4
2500.7
2476.3
2483.9
2530.9
2523.8
2525.5
2412.1
2310
2226.8
2209.6
2196.6
2234.4
2342.3
2406.6
2480.1
2652.3
2822
2814.8
2761.5
2688
2651.9
2610.3
2601.1
2584.3
2578.4
2570.8
2606.5
2657.8
2709
2680.4
2604.8
2740.9
2969.8
2890.4
2780.8
2805.6
2765.7
2894.2
2967.7
3117.2
3179.4
3130.3
3088.7
2820.3
2809
2784.6
2769.1
2757.7
2751.8
2761.9
2827.9
2818.6
2969.8
3181.5
3130.3
3045
3202.1
3252.9
3202.1
3147.1
3162.2
2973.2
3154.6
3149.2
3272.2
3309.6
3279.4
3245.3
3211.7
3196.2
3177.7
3145.4
3160.9
3158.8
3192.4
3098.3
3284.8
3163.9
3063.9
2998.4
2950.9
2897.6
2882.5
2980.7
2979.1
3156.7
3276
3425.1
3536.4
3374.3
3311.7
3310
3357.1
3451.6
3419.6
3410.4
3379.7
3381.4
3421.3
3465
3491
3385.6
3218.9
3143.3
3105.5
3090.4
3077.3
3213.4
3268
3338.2
3396.5
3345.3
3451.1
3353.3
3345.7
3298.7
3258.8
3211.3
3183.2
3156.7
3152.9
3145.4
3217.2
3281.5
3307.9
3289.4
3262.6
3378.1
3351.6
3345.7
3406.2
3011
3056.8
3225.2
3349.5
3236.5
3320.9
3268.4
3224.3
3142
2859.8
2830
2803.5
2716.6
2656.1
2638.9
2682.5
2709
2744.7
2646.8
2527.6
2410.4
2332.3
2606.9
2852.2
2850.5
2863.6
2801.4
2867.8
2969.8
3060.1
2735
2685.9
2644.7
2612.4
2595.6
2600.6
2566.6
2550.2
2521.7
2555.7
2644.3
2689.7
2622.1
2495.2
2399
2323.4
2525.5
2731.7
2633
2684.2
2771.2
2789.6
2961.8
3050.5
2862.3
2729.6
2680.4
2633
2618.3
2599
2587.6
2565.4
2569.1
2601.5
2644.7
2667.4
2580.5
2470.9
2344
2280.2
2462.9
2767.4
2623.7
2641
2656.1
2859.8
2903.9
2884.6
2791.7
2727.5
2706.9
2688.4
2661.5
2636.8
2585.9
2578.4
2569.1
2591.4
2572.9
2578.4
2570.8
2557.4
2616.2
2861.9
2859.8
2727.5
2627.5
2698.9
2714.5
2829.5
3052.6
3111.4
3136.1
3062.2
2786.3
2778.7
2780.8
2788.4
2769.5
2750.6
2738.8
2778.3
2753.9
2722
2791.7
2760.2
2665.3
2627.5
2541
2682.1
2769.5
2860.2
2872.8
2926.1
3118.9
3211.7
3232.3
3187
2879.1
2853.9
2846.8
2825.8
2827.9
2810.6
2827.9
2863.6
3152.9
3234.4
3190.7
3131.9
2988.7
3137.8
3032.4
2877
2998
3439.8
3512
3400.3
3213.4
3383.5
3337.7
3298.7
3236.1
3137.8
2850.5
2816.5
2799.3
2803.5
2825.8
2937.9
3240.3
3291.1
3258.4
3170.2
3058.4
3003.8
2948.8
2867.8
3005.9
2913.1
3047.1
3082.8
3184.9
3292.8
3281.9
3319.3
3257.1
2971.5
2880.4
2852.2
2867.3
3135.7
3121
3169.7
3249.1
3290.7
3234
3128.6
3081.5
3158.8
2911
3000.1
2930.3
2967.7
3151.3
3171.8
3347.8
3381.4
3370.1
3339.8
3310
3285.2
3247.4
3230.2
3192.8
3200.4
3211.7
3292.4
3359.2
3429.3
3468.8
3351.6
3270.1
3328.9
3113
3400.3
3434.8
3805.2
3493.1
3555.3
3487.3
3534.7
3438.5
3319.3
3283.1
3252.9
3223.1
3196.2
3145.4
3128.6
3103.8
3160.1
3211.7
3257.1
3149.2
3016.9
2909.3
2895.5
2905.6
2771.2
2829.5
2958.5
2873.6
3013.1
3100
3223.1
3196.6
3122.7
3084.9
2840.9
2767.4
2745.1
2737.1
2725.4
2712.8
2742.6
2740.9
2735.5
2835
2922.8
2897.6
2606.9
2523.4
2689.7
2597.3
2629.6
2785.9
2932
3103.8
2931.6
2871.5
2829.5
2771.2
2753.9
2750.2
2704.8
2661.5
2646.4
2624.2
2669.5
2676.7
2648.5
2517.9
2595.6
2563.3
2470.9
2410
2442.7
2391.5
2517.5
2602.7
2726.2
2665.7
2818.2
2825.8
2782.5
2750.6
2739.2
2724.1
2708.6
2714.5
2740.9
2764
2827.9
2895.9
3052.6
3162.6
3027.8
3024
2909.3
2846.8
2850.5
2916.9
2943.4
3017.3
3173.5
3245.3
3307.9
3257.1
2946.7
2907.7
2871.1
2859.8
2859.8
2844.7
2801.4
2814.4
2926.1
3239.9
3302.5
3208
3080.7
2988.3
2924.5
2890.4
2914.8
2893.8
2947.1
2922.8
2988.3
3094.1
3177.7
3117.2
2824.1
2776.6
2763.2
2665.3
2621.6
2593.5
2585.9
2449.4
2640.5
2709
2754.4
2895.9
2864
2886.2
2824.1
2982.8
2771.6
2856.4
2948.8
3009.3
3056.3
3275.6
3238.2
3184.9
2945.5
2754.4
2712.8
2672.9
2644.7
2612.4
2597.3
2570.8
2619.5
2644.7
2725.8
2706.9
2586.4
2486
2364.6
2365
2341.9
2385.6
2481.8
2684.2
2850.1
2869.4
2884.6
2850.1
2848.9
2826.2
2751.8
2684.2
2680.4
2684.2
2703.1
2355.4
2620
2729.6
2776.6
2719.9
2649.8
2591.8
2650.2
2659.9
2818.2
2820.3
2752.3
2795.9
2890.4
2816.5
2918.6
2897.6
2860.2
2801.8
2772.8
2720.3
2703.1
2676.7
2665.3
2639.3
2671.2
2675
2667
2554
2434.3
2391.5
2347.8
2536.4
2746.4
2697.7
2501.1
2574.6
2596.9
2633
2765.7
2791.7
2769.5
2744.7
2727.9
2714.5
2695.6
2669.1
2640.5
2636.8
2655.7
2654
2650.6
2523.4
2561.2
2618.3
2593.5
2697.2
2550.2
2731.3
2699.3
2723.7
2729.6
2797.6
2782.5
2835.4
2846.8
2824.1
2807.3
2793.8
2769.5
2755.6
2725.8
2691.8
2735.5
2784.6
2831.6
2950.5
3021.1
3054.7
2932
2890
2848.9
2920.7
3162.6
2903
2875.3
2846.8
2914.8
2856
2812.7
2765.3
2772.8
2764
2769.5
2744.7
2727.5
2722
2827.4
3177.7
3359.2
3446.1
3493.1
3427.2
3347.8
3328.9
3188.6
3296.6
3294.9
3457
3187.4
3187.4
3281.5
3254.6
3232.3
3107.6
2869.4
2846.3
2839.2
2837.5
2809
2759.8
2804.8
3386.9
3620
3502.4
3353.3
3247.4
3221.4
3249.5
3120.6
3128.6
3173.9
3279.8
3302
3385.2
3232.3
3139.9
3055.1
2748.5
2750.2
2729.6
2699.3
2659.4
2627.5
2621.6
2665.3
2719.9
2780.8
2733.4
2688
2587.6
2433.1
2493.1
2447.8
2510.3
2370.5
2461.2
2572.9
2714.9
2811.1
2777
2712.4
2671.2
2638.9
2614.5
2597.3
2585.9
2542.3
2515.8
2561.6
2620.4
2697.7
2685.9
2617.9
2533
2478
2444.4
2722
2759.8
2825.8
2941.3
3088.7
3196.6
3278.1
3245.8
3155
2898
2852.6
2809
2805.2
2782.5
2761.9
2743
2788
2785.9
2779.1
2657.8
2642.6
2636.8
2627.5
2604.8
2536.8
2685.9
2684.2
2788
2960.2
3130.3
3213.4
3190.7
3184.9
3085.3
2848.4
2827.9
2820.7
2801.4
2803.1
2792.2
2837.5
2856.4
2956.4
2953
2797.6
2714.5
2648.5
2625.8
2690.1
2712.8
2822
3005.5
3231.9
3147.5
3257.1
3232.7
3211.3
3049.2
2858.1
2843
2837.5
2818.2
2818.6
2816.5
2950.5
3226.4
3291.1
3266.3
3133.6
3050.9
3005.5
3126.5
3092.9
3051.3
3079
3081.1
3181.1
3311.3
3357.1
3298.3
3286.9
3143.3
2895.9
2876.6
2861.9
2858.1
2869.9
3200.4
3238.2
3296.6
3368.4
3352.9
3187
3073.6
2998
2969.8
2926.1
2984.9
3071.9
3132.4
3317.6
3374.3
3426.8
3328.9
3288.6
3113
3113.5
3187
3177.3
3166
3160.5
3177.7
3242
3347.4
3432.7
3465
3266.3
3126.5
3047.1
3162.6
3221
3032
3209.6
3273.9
3370.5
3391.1
3362.9
3168.1
2979.1
3276
3255
3237.8
3226.4
3196.6
3202.5
3215.5
3272.2
3353.3
3439.8
3391.1
3251.2
3175.6
3124.8
3081.1
3162.2
3315.5
3260.9
3402
3393.2
3428.9
3410.4
3343.6
3317.6
3264.2
3277.7
3255
3249.1
3192.8
3168.5
3183.2
3223.1
3309.6
3343.6
3202.1
3026.1
2909.3
2856
2799.7
2767.4
2788.4
2841.3
2909.3
3039.5
3154.6
3255
3196.2
2843
2759.8
2705.2
2682.1
2656.1
2623.7
2593.5
2606.9
2641
2651.9
2625.8
2487.7
2319.7
2176
2109.7
2081.1
2069.8
2102.1
2111.8
2268.8
2457.4
2680.4
2771.2
2772.8
2727.9
2672.9
2646.8
2625.4
2599
2561.6
2536.8
2530.9
2544.4
2554
2530.9
2521.7
2561.6
2553.6
2470.9
2648.1
2792.2
2793.4
2912.7
3064.3
3070.2
3105.9
3190.7
3166
3149.2
3062.2
2830
2840.9
2841.3
2811.1
2799.3
2809
2880.8
3210.1
3224.8
3238.2
3223.1
2995.9
2880.8
3011.4
2911
3162.2
3089.1
3151.3
3215.5
3328.9
3332.7
3252.9
3177.7
2899.7
2871.5
2843
2835.8
2822.4
2809.4
2801
2918.6
3272.2
3296.6
3309.6
3151.3
2984.5
2895.9
2827.9
2803.5
2824.1
2888.3
2916.9
3052.6
3181.5
3205.9
2835.4
2714
2670.8
2638.9
2610.3
2602.7
2576.7
2498.6
2453.6
2491
2561.6
2945
3101.7
3050.9
3076.9
2920.3
2892.5
2878.7
3234
3173.9
3001.7
2865.7
2820.3
2845.1
2778.7
2729.6
2686.3
2654
2595.6
2559.1
2480.5
2465
2463.3
2506.6
2578.4
2663.6
2697.2
2612.4
2529.7
2451.5
2447.8
2576.3
2533
2542.7
2563.3
2663.2
2803.5
2801.4
2716.6
2672.9
2620
2566.6
2495.2
2466.7
2454.1
2434.7
2412.1
2466.7
2538.5
2608.2
2669.1
2782.5
2640.5
2680.4
2601.1
2631.3
2483.9
2387.3
2449.9
2623.7
2788
2837.1
2761.9
2714
2667.4
2652.3
2614.1
2563.3
2501.1
2468.8
2461.2
2483.9
2500.7
2479.7
2417.5
2352
2253.3
2249.5
2612
2504.5
2429.3
2538.9
2533
2771.2
2840.9
2869.4
2856.4
2824.1
2801.4
2795.9
2773.3
2746.8
2722
2704.8
2706.9
2711.1
2727.9
2839.2
2907.2
2772.8
2680.4
2646.8
2610.7
2616.2
2769.5
2848.9
3009.3
3041.2
3181.5
3226.9
3213.4
3194.5
3043.3
2837.1
2814.4
2795.5
2793.8
2788
2786.3
2933.3
3257.1
3334.4
3291.1
3237.8
3109.3
3257.1
3242
3162.2
3054.7
3077.8
3109.3
3255
3341.9
3339.8
3307.9
3277.3
3245.3
3219.3
3190.7
3160.5
2833.3
2820.3
2809
2929.9
3252.9
3302.5
3264.7
3158.4
3014.8
2950.9
2994.2
2981.2
3132.4
3171.4
3205.9
3226.9
3330.6
3323
3228.5
3190.7
3075.7
2864
2837.1
2822
2810.6
2803.5
2009.7
2665.3
3158.8
3200
3177.7
3150.8
3109.7
3014.8
3234.4
3014.8
3080.7
3043.7
3328.5
3228.5
3278.1
3296.6
3258.8
3260.9
3108
2888.3
2854.3
2843.4
2820.3
2793.8
2791.7
2899.7
3234.4
3243.7
3255
3170.2
3067.7
2992.1
2935.4
2895.9
2929.9
3028.6
3104.2
3219.3
3355.4
3372.6
3302.5
3266.3
3223.1
3162.6
3137.8
3121
3098.3
3077.3
3083.2
3134
3247.4
3323
3300.8
3213.4
3130.3
3090.4
2966
2950.9
2945
3049.2
3094.1
3228.5
3302
3294.9
3203.8
3141.6
3110.9
3047.1
2777
2759.8
2729.6
2714.5
2703.1
2725.8
2697.7
2654
2544.8
2385.6
2245.3
2181.5
2126.5
2090.8
2117.2
2189
2297
2491.4
2699.8
2780.8
2730
2682.5
2651.9
2622.1
2606.5
2574.6
2563.3
2525.5
2519.6
2551.9
2538.9
2525.5
2467.1
2367.1
2554
2482.2
2440.2
2427.2
2472.5
2593.9
2710.7
2899.7
3045
2850.5
2784.6
2727.5
2722
2714
2722
2712.8
2682.1
2646.4
2641
2703.1
2765.3
2777
2655.7
2510.3
2674.6
2654
2599.4
2596.9
2650.2
2752.7
2905.1
3109.3
3255
3272.2
2988.7
2865.7
2848.9
2856.4
2823.7
2820.3
2809.4
2801.4
2797.6
2908.9
3184.9
3266.3
3283.1
3175.6
3067.7
3031.6
2981.2
2960.2
3054.7
3043.7
3157.1
3279.4
3374.3
3376
3238.2
2942.9
2914.8
2892.1
2858.1
2845.1
2825.8
2818.6
2835.4
2945
3347.4
3383.5
3440.2
3298.7
3208
3186.5
3022.3
3343.6
3627.5
3417.5
3299.9
3397
3445.7
3442.3
3378.1
3320.9
3300.4
3257.1
3234
3207.5
3152.5
3097.9
3103.8
3164.3
3319.3
3400.3
3425.1
3413.8
3291.1
3249.5
3408.3
3444
3498.6
3512.5
3467.1
3404.5
3372.2
3326.8
3236.1
3203.8
3155
3073.6
2979.1
2771.2
2777
2778.7
2797.6
2824.1
2841.3
2895.9
3035.8
3122.7
2839.2
2699.3
2535.1
2773.3
2845.1
2748.5
2706.9
2941.3
2928.2
2916.9
2799.3
2764
2725.8
2682.1
2670.8
2637.2
2625.8
2629.2
2630.9
2682.1
2693.9
2667.4
2569.1
2576.3
2641
2931.6
2941.7
2971.5
3058.9
3071.9
3157.1
3202.1
3185.3
3207.5
3126.5
3109.7
2829.5
2822
2809
2812.7
2809
2795.9
2797.2
2797.6
2811.1
2716.6
2548.6
2400.3
2291.1
2236.5
2130.7
2285.2
2572.9
2591.4
2486
2593.5
2651.9
2641
2563.3
2502.8
2459.5
2436.4
2419.6
2374.3
2368.8
2353.3
2357
2393.2
2457.4
2525.5
2483.9
2360.8
2249.5
2230.6
2189
2179.8
2210
2287.3
2449.9
2587.6
2720.3
2719.9
2642.6
2609
2544.4
2472.5
2436.8
2415.8
2415.8
2383.9
2408.3
2425.1
2622.1
2837.1
2915.2
3007.6
2998
2627.5
2349.9
2328.9
2362.9
2429.3
2583.8
2710.7
2822.4
2833.7
2774.9
2718.2
2682.5
2640.5
2583.8
2527.1
2499
2474.2
2476.3
2530.9
2599.4
2652.3
2659.9
2597.3
2521.3
2493.1
2483.9
2444.4
2468.8
2568.7
2682.5
2825.8
2941.3
2922.8
2901.4
2879.1
2791.7
2724.1
2654.4
2600.6
2570.8
2529.2
2470.4
2512
2654
3032
3306.2
3186.5
3270.5
2616.2
2803.5
2813.2
3184.9
3224.8
3361.3
3358.7
2884.6
2948.8
2882.5
2814.4
2714.5
2641
2612.4
2587.6
2570.4
2546.5
2567
2590.1
2623.7
2685.9
2693.5
2604.8
2638.9
2780.4
2731.3
2709
2727.9
2846.8
2988.7
3196.2
3260.9
2924
2839.2
2835.4
2828.3
2801.4
2750.6
2746.4
2720.3
2680.4
2680.9
2612.4
2593.5
2646.4
2657.8
2616.2
2531.3
2616.2
2549.8
2529.2
2559.5
2665.3
2864
3001.7
3184.9
3249.5
3196.2
3198.3
3064.3
2856.4
2832.1
2818.2
2816.5
2811.1
2810.6
2927.8
3060.1
2701.4
2661.5
2584.3
2455.3
2261.3
2076.1
2071.9
2121
2207.9
2380.1
2542.7
2684.6
2698.9
2648.5
2644.3
2578.4
2520
2470.9
2446.1
2431.4
2414.2
2398.6
2444
2508.7
2518.3
2523.4
2379.7
2425.5
2346.1
2352
2327.2
2427.2
2406.6
2674.6
2782.5
2784.2
2750.6
2680.4
2654
2638.4
2606.9
2580.5
2565.4
2499
2434.7
2433.1
2468.8
2554
2618.3
2621.6
2572.5
2576.3
2495.2
2587.6
2703.1
2810.6
2782.5
2699.3
2693.9
2731.7
2772.8
2737.1
2695.6
2661.1
2562.8
2489.3
2472.5
2482.2
2410.4
2402.4
2446.1
2517.9
2585.9
2542.7
2396.5
2360.8
2287.3
2274.3
2291.1
2325.1
2438.9
2612.4
2735.5
2827.9
2803.5
2716.1
2704.8
2609
2542.7
2486
2444.4
2404.5
2378
2364.6
2399
2489.3
2731.7
2874.9
2986.6
3053
2761.9
2446.1
2419.6
2417.9
2499
2754.4
2803.1
2886.7
2877
2756
2701.4
2663.2
2631.3
2610.3
2600.6
2599
2557.8
2548.6
2553.6
2621.6
2682.5
2690.1
2672.9
2540.6
2463.3
2328.9
2300.8
2449.9
2549.8
2748.5
2801.4
2835.4
2816.5
2740.9
2710.7
2642.6
2593.1
2578.4
2555.3
2506.1
2466.7
2455.7
2493.1
2508.2
2489.8
2413.7
2336.5
2473
2417.5
2334.4
2281.4
2372.6
2344
2404.5
2557.4
2659.9
2631.3
2574.6
2585.9
2554
2540.6
2735.5
2773.3
2723.7
2693.5
2667
2678.8
2595.6
2551.9
2489.8
2442.3
2370.5
2413.7
2251.2
2272.6
2438.1
2487.2
2637.2
2636.8
2706.9
2711.1
2710.7
2745.1
2703.1
2675
2644.7
2638.9
2614.1
2604.8
2597.3
2659.9
2710.7
2824.1
2890.4
2918.6
2928.2
3054.7
3175.6
2952.6
2937.5
3137.8
3275.6
3297
3279.4
3257.1
3192.8
3060.1
3079
2856
2841.3
2835.4
2831.6
2814.4
2816.1
2937.5
3260.5
3311.7
3258.8
3239.9
3262.6
3171.8
3130.3
3415.9
3332.7
3465
3460.8
3423
3385.2
3347.4
3249.5
3228.5
3205.4
3187
3168.1
3150.8
3150.8
3145
3155
3230.6
3328.5
3415.4
3461.2
3457.4
3415.4
3349.5
3319.3
3228.5
3268.4
3251.2
3330.6
3160.5
2884.6
2829.5
2746.8
2727.9
2651.9
2552.3
2506.1
2455.3
2420
2393.2
2391.5
2428.9
2497.3
2606.5
2688
2654.4
2586.4
2533
2615.8
2601.1
2623.7
2712.8
2697.7
2671.2
2674.6
2753.9
2719.9
2686.3
2650.2
2623.7
2563.3
2536.8
2495.2
2459.5
2448.2
2306.2
2261.3
2554
2661.5
2693.5
2637.2
2557.4
2641
2661.5
2625.4
2496.9
2347.8
2332.7
2283.5
2239.9
2185.3
2170.1
2140.3
2123.1
2104.2
2100
2084.9
2075.6
2087.4
2117.6
2134.4
2158.8
2111.8
2115.1
2081.5
2111.8
2137.8
2149.1
2143.7
2139.9
2126.5
2166.8
2173.9
2168.5
2139.9
2158.8
2176
2627.5
2470.4
2447.8
2413.7
2132.3
2123.1
2158.8
2197
2194.9
2130.7
2028.2
1956.4
2370.5
2375.9
2293.2
2234.8
2421.7
2515.8
2705.2
2793.8
2743
2688
2654
2625.8
2555.7
2260.9
2137.8
2103.8
2103.8
2103.8
2134.4
2236.5
2336.5
2618.3
2650.2
2468.8
2431
2527.1
2268.4
2359.6
2474.2
2633
2629.2
2635.1
2591.4
2519.6
2481.8
2400.7
2221.4
2194.9
2124.8
2096.2
2098.3
2102.1
2147.5
2217.6
2302.4
2293.2
2447.8
2321.3
2262.5
2242.4
2181.9
2281.9
2453.6
2580.5
2753.9
2753.9
2699.3
2650.2
2567
2542.3
2510.3
2465
2442.3
2427.2
2414.2
1707.3
2239.9
2455.3
2542.3
2642.6
2640.5
2381.8
2538.5
2266.3
2238.2
2291.1
2455.3
2584.3
2716.6
2719.9
2687.6
2616.2
2582.2
2515.8
2461.2
2408.3
2348.2
2331
2353.3
2313.4
2279.8
2247.4
2533
2535.1
2442.3
2429.3
2327.2
2291.1
2413.7
2604.8
2718.2
2631.3
2746.4
2763.6
2652.3
2544.4
2564.9
2550.2
2519.6
2463.3
2436.4
2512.4
2517.9
2551.9
2593.5
2627.5
2678.3
2625.4
2603.2
2551.9
2448.2
2746.4
2529.2
2580.5
2895.9
2977
3005.5
2897.6
2807.3
2764
2688
2644.7
2555.7
2440.6
2391.1
2368.4
2334.4
2315.9
2332.7
2198.7
2168.5
2034.1
2005.5
2117.2
2026.5
2045
2100.4
2249.5
2487.7
2604.8
2874.9
2843
2682.1
2572.5
2494.8
2158.8
2126.5
2109.7
2105.9
2100.4
2086.6
2081.1
2124.8
2141.6
2123.1
2013.5
2021
2126.5
2236.5
2232.7
2251.6
2381.8
2571.2
2704.8
2924
2977
2838.8
2672.9
2596.9
2561.2
2482.2
2249.9
2121
2094.1
2088.7
2102.1
2139.5
2251.2
2357.5
2372.2
2402.8
2272.2
2278.1
2247.8
2255.4
2338.1
2465
2589.7
2729.6
2727.9
2684.2
2622.1
2576.7
2512.4
2425.5
2391.1
2387.7
2408.3
2368.4
2368.8
2440.2
2527.6
2644.7
2661.1
2548.1
2636.8
2701.4
2714.5
2554
2518.3
2680.4
2663.6
2740.9
2739.2
2698.9
2606.9
2521.3
2508.2
2472.5
2442.3
2415.8
2391.5
2361.2
2351.6
2374.3
2429.3
2512
2491.4
2363.3
2342.3
2215.9
2223.1
2529.7
2672.9
2569.1
2587.6
2644.3
2590.1
2536.8
2459.1
2448.2
2393.2
2268.4
2153.3
2132.3
2109.7
2105.9
2098.3
2145.8
2225.2
2309.6
2325.1
2217.2
2349.9
2160.9
2111.8
2096.6
2206.3
2325.1
2414.2
2564.9
2528.8
2491.4
2410
2380.1
2192.4
2162.6
2147.5
2121
2111.8
2098.7
2123.1
2157.1
2232.3
2327.2
2691.8
2515.8
2425.5
2430.5
2442.3
2718.2
2697.2
2771.2
2873.6
2854.3
2797.6
2695.6
2461.6
2202.5
2173.9
2164.7
2131.9
2123.1
2110.1
2104.2
2100
2136.5
2158.8
2179.4
2054.6
1873.2
1761.9
1680.8
1914.8
1727.9
1750.6
1971.9
2018.9
2151.2
2196.2
2197
2168
2166.8
2145.8
2143.3
2145.4
2130.2
2134
2124.8
2128.1
2149.6
2228.9
2243.6
2102.5
1879.1
1692.2
1570.8
1685.9
1675
1882.9
1952.6
2000.5
2145.4
2177.7
2181.5
2157.1
2175.6
2155
2136.1
2141.6
2209.6
2211.7
2210
2207.9
2213.4
2291.1
2392.7
2370.5
2189
2001.7
1879.1
1826.2
1805.6
1949.2
2024.8
2162.6
2336.5
2325.5
2283.1
2227.3
2207.9
2185.3
2152.9
2132.3
2121
2115.1
2111.8
2115.5
2171.8
2251.6
2340.2
2333.1
2399
2570.8
2385.6
2459.1
2584.3
2824.1
2916.5
3060.5
3152.9
3086.6
2905.6
2818.2
2769.1
2740.9
2701
2648.5
2597.3
2561.6
2452
2113.4
2156.7
2240.3
2410.4
2533
2387.7
2289
2292.8
2291.5
2348.2
2489.8
2585.9
2677.1
2738.8
2703.1
2638.4
2563.3
2474.6
2395.3
2364.6
2310.4
2294.9
2260.9
2092.4
2089.1
2141.6
2228.9
2489.8
2502.8
2414.2
2242
2355.4
2285.6
2406.2
2606.9
2753.9
2780.4
2808.5
2765.7
2725.8
2669.1
2640.5
2599
2536.8
2451.5
2387.7
2364.6
2332.7
2304.1
2221
2230.6
2297
2268.8
2546.5
2434.7
2344
2332.7
2381.8
2468.8
2495.2
2656.1
2769.1
2703.1
2523.4
2196.6
2160.5
2120.6
2104.2
2077.7
2085.3
2071.9
2066
2062.6
2105.9
2149.1
2168
2041.6
1928.2
1730
1695.5
1799.7
2317.1
2315.5
2425.5
2501.1
2561.2
2542.3
2486
2459.5
2449.9
2434.7
2432.6
2431.4
2412.1
2431
2419.6
2431
2487.7
2533
2542.7
2536.8
2502.8
2465
2517.9
2546.5
2391.5
2483.9
2828.3
2788.4
2805.2
2684.2
2627.5
2548.1
2264.6
2134.4
2108
2096.6
2091.2
2067.7
2058.8
2064.3
2121
2202.5
2306.2
2332.7
2327.2
2013.1
2043.7
2326.8
2313.8
2406.2
2476.3
2675
2748.9
2684.2
2368.4
2194.9
2181.5
2149.1
2113.4
2085.3
2077.3
2068.5
2076.1
2066.4
2131.9
2207.9
2302
2302.4
2164.7
2075.6
2407.9
2610.3
2636.8
2663.6
2724.1
2712.8
2706.9
2691.8
2583.8
2215.5
2186.9
2158.8
2139.9
2121
2109.7
2100.4
2094.5
2092.9
2525
2744.7
2765.7
2684.2
2731.7
2669.1
2699.3
2698.9
2733.4
2778.3
2829.5
2841.3
2846.8
2845.1
2822
2765.3
2774.9
2729.6
2745.1
2705.2
2703.1
2678.8
2631.3
2497.3
2542.3
2599
2735
2714.5
2675
2574.6
2489.8
2690.1
2470.9
2482.2
2559.5
2564.9
2623.7
2520
2472.5
2431
2396.9
2357
2317.6
2289.4
2162.2
2100
2102.1
2100
2145.4
2217.6
2328.9
2315.5
2170.1
2459.5
2306.6
2277.7
2355.4
2442.3
2567
2669.1
2672.9
2432.6
2266.3
2223.1
2191.1
2163
2124.8
2111.8
2164.7
2166.4
2132.3
2107.6
2135.7
2196.6
2168.5
2077.3
1907.6
1864
1735.4
1661.9
2236.5
2234.4
2425.5
2452
2389.4
2213.8
2189
2156.7
2145.8
2134
2145.4
2117.2
4221
2105.9
2090.3
2109.7
2143.7
2181.5
2378
2470.9
2530.9
2538.9
2553.6
2546.5
2658.2
2740.9
2767.4
2831.6
2784.2
2799.3
2753.9
2706.9
2671.2
2644.7
2648.5
2548.6
2457.4
2427.2
2191.1
2100
2143.3
2215.5
2440.6
2485.6
2444
2459.1
2510.3
2504.5
2525.5
2548.1
2631.7
2633
2590.1
2543.9
2455.3
2338.1
2190.7
2157.1
2137.8
2109.7
2088.7
2087
2077.7
2088.7
2137.8
2207.9
2240.3
2243.6
2353.3
2236.5
2272.2
2359.1
2419.2
2540.6
2731.7
2760.2
2725.8
2672.5
2533
2442.3
2412.5
2361.2
2313.4
2251.6
2215.5
2168.5
2155
1523.3
2008
2251.6
2296.6
2347.4
2453.6
2372.2
2310
2361.2
2419.6
2535.1
2719.9
2760.2
2684.2
2641
2563.3
2493.5
2455.3
2431
2420
2398.6
2372.2
2317.1
2190.7
2196.6
2257.1
2497.3
2530.9
2561.6
2617.9
2514.1
2583.8
2686.3
2916.5
3026.5
2998.4
2997.5
2962.3
2910.6
2861.9
2798
2757.7
2727.5
2716.6
2682.5
2674.6
2658.2
2642.6
2654
2691.8
2793.8
2854.3
2888.3
2913.1
2818.2
3166.4
3208
3109.3
3124.8
3190.7
3239.9
3209.6
3183.2
3005.9
2818.6
2809
2777
2665.3
2599
2585.9
2569.1
2483.9
2467.1
2476.3
2470.4
2427.2
2353.7
2366.7
2338.1
2355.4
2400.7
2423.4
2417.9
2444.4
2457.4
2446.1
2421.7
2421.7
2385.6
2285.6
2207.9
2198.3
2191.1
2160.9
2145.8
2132.3
2132.3
2155
2186.9
2137.8
1980.7
1820.3
1718.2
1719.9
2211.7
2273.9
2378
2591.8
2623.7
2362.9
2181.5
2156.7
2149.1
2143.7
2136.1
2109.7
2103.8
2096.2
2090.3
2083.2
2095
2126.9
2223.1
2312.1
2274.3
2177.3
2187.4
2474.2
2667.4
2697.7
2835.4
2941.7
2898
2816.5
2625.4
2300.8
2236.5
2215.5
2168.5
2147.5
2137.8
2118.9
2126.5
2160.5
2404.5
2365
2429.3
2523.8
2663.6
2746.4
2729.6
2729.6
2691.4
2752.3
2777
2752.3
2708.6
2631.3
2580.1
2538.9
2461.2
2389.8
2206.3
2175.6
2132.3
2109.7
2092.4
2088.7
2096.2
2155
2251.6
2542.7
2481.8
2470.9
2436.4
2533
2478.4
2520
2617.9
2676.7
2684.2
2635.1
2599
2547.7
2491.4
2470.9
2421.7
2370.5
2341.9
2326.8
2306.2
2311.7
2313.8
2387.3
2419.6
2502.4
2578.8
2591.4
2636.8
2638.9
2597.3
2669.1
2633.4
2648.1
2642.2
2614.1
2567
2506.1
2455.3
2304.1
2251.2
2211.7
2066.4
2094.5
2088.7
2108
2105.9
2557.8
2622.1
2680.4
2633.4
2504.9
2412.1
2427.6
2478
2588
2548.1
2735.5
2487.7
2359.1
2293.2
2162.6
2189
2162.6
2128.1
2105.9
2090.8
2073.5
2069.8
2058.4
2058.8
2092.9
2157.1
2136.1
2013.1
1769.5
1586.3
1638.8
1665.3
1718.6
1880.8
2102.1
2166.4
2189
2170.1
2149.1
2149.1
2147.5
2118.9
2092.9
2092.9
2089.1
2075.6
2069.8
2069.8
2104.2
2143.7
2075.6
1914.8
1875.3
1633
1652.3
1966
2294.9
2383.5
2565.4
2596.9
2582.2
2551.5
2365
2111.3
2113.4
2092.4
2094.5
2073.5
2062.2
2049.6
2049.2
2054.6
2107.6
2173.9
2293.2
2391.5
2283.5
2177.7
2194.9
2202.1
2332.7
2454.1
2641
2654.4
2512
2449.4
2401.1
2382.2
2359.1
2302.4
2145.8
2062.6
2054.6
2043.7
2028.6
2037.8
2083.2
2181.5
2251.6
2211.3
2050.9
1983.2
2007.6
2001.7
2100
2215.5
2400.7
2406.2
2362.9
2319.7
2266.3
2223.1
2185.7
2172.2
2151.2
2142
2138.2
2128.6
2121
1992.5
1958
2032.4
2202.5
2242
2341.9
2627.5
2805.2
2877
2865.7
2890.4
2914.8
2897.6
2839.2
2805.2
2767.4
2739.2
2735.5
2748.5
2675
2644.7
2638.9
2623.3
2623.7
2665.3
2737.1
2861.5
2999.6
3079.4
2837.5
2793.8
2848.9
2869.4
2916.9
2935.4
2884.6
2867.3
2803.1
2771.2
2742.6
2697.7
2670.8
2627.9
2567
2525.5
2491
2452
2353.7
2268
2173.9
2245.7
2317.1
2599.4
2387.7
2304.1
2328.9
2355.4
2400.7
2550.2
2710.7
2559.9
2347.4
2297
2260.9
2204.2
2183.2
2157.1
2151.2
2124.8
2126.9
2104.2
2077.3
2007.6
2045.8
2087
2134.4
1963.9
1781.2
1750.6
1730
1746.8
1968.1
2298.2
2410.4
2321.3
2202.1
2188.6
2179.8
2160.9
2158.8
2139.9
2120.6
2111.8
2117.2
2104.2
2101.7
2089.1
2132.3
2172.2
2185.7
2102.1
2037.4
2066.4
2041.6
2100.4
2107.6
2174.3
2202.1
2223.1
2226.4
2215.5
2190.7
2183.2
2179.8
2157.1
2145.8
2142
2139.9
2132.3
2119.3
2149.1
2196.6
2276
2374.7
2340.2
2168.5
2043.7
2136.5
2021
2215.5
2304.1
2457.4
2432.6
2393.2
2351.6
2319.2
2294.9
2370.5
2278.1
2299.1
2270.1
2263
2223.1
2179.8
2181.5
2236.1
2294.9
2413.7
2444.4
2391.1
2315.9
2085.3
2068.1
2120.6
2264.6
2431.4
2446.1
2401.1
2376.4
2340.2
2298.7
2260.9
2232.3
2211.7
2179.8
2179.8
2191.1
2200.4
2202.1
2255.4
2342.3
2391.1
2334.4
2171.8
2090.8
2081.1
2071.9
2122.7
2255.4
2389.4
2402.8
2347.8
2336.5
2291.1
2247.4
2225.2
2200.4
2183.2
2160.9
2153.3
2135.7
2137.8
2137.8
2213.8
2243.6
2210
2045.4
1898.4
1818.6
2296.6
2251.2
2308.3
2508.2
2801.4
2835.4
2726.2
2538.5
2255
2189.5
2152.9
2135.7
2130.2
2121
2124.4
2107.6
2105.9
2121
2156.7
2219.3
2239.9
2126.9
2056.7
2434.7
2457.4
2478.4
2506.6
2772.8
2892.1
2841.3
2775.4
2767.4
2710.3
2623.7
2572.5
2228.5
2173.9
2168
2130.2
2107.6
2108
2113.9
2145.8
2185.7
2302.4
2137.8
2102.1
2098.3
2154.6
2259.2
2419.6
2716.1
2670.8
2612.4
2553.6
2502.8
2221.4
2132.3
2130.2
2098.7
2082.8
2100
2082.8
2070.2
2073.5
2083.6
2109.7
2156.7
2171.8
2105.9
2005.9
1898
1739.2
1816.5
1920.7
1992.1
2126.9
2189
2187.4
2183.6
2175.6
2153.3
2168
2157.1
2149.1
2139.9
2122.7
2115.1
2105.9
2128.6
2206.3
2287.3
2404.5
2402.4
2319.2
2340.7
2219.3
2102.5
2186.9
2336.5
2465
2431
2383.9
2347.8
2306.2
2262.5
2236.5
2204.2
2160.9
2141.6
2132.3
2118.9
2102.1
2109.7
2164.3
2230.6
2364.6
2432.6
2770.7
2743
2714.9
2748.5
2759.8
2735
2727.9
2527.6
2374.3
2344
2290.7
2255.4
2219.7
2196.6
2164.7
2145.8
2130.2
2109.7
2109.7
1520
2032.4
2221.4
2324.7
2421.7
2440.6
2423.4
2419.6
2447.8
2438.5
2462.9
2472.5
2438.5
2372.6
2334.8
2302.4
2294.5
2822.4
2642.6
2489.3
2165.9
2158.8
2157.1
2145.4
2159.2
2198.7
2270.1
2374.3
2340.2
2247.4
2258.8
2181.5
2321.3
2359.1
2331
2441.9
2468.8
2408.7
2381.8
2353.7
2305.8
2289
2270.1
2232.7
2196.6
2173.9
2181.5
2173.9
2176
2207.9
2297
2370.5
2346.1
2209.6
2164.3
2107.6
2068.1
2115.1
2294.9
2425.5
2423.4
2394.8
2364.6
2331
2293.2
2262.5
2236.5
2210
2190.7
2192.8
2223.5
2228.5
2221
2243.6
2283.1
2272.2
2158.8
1977.4
1881.2
1849.3
1832
1890.4
2075.6
2211.7
2262.5
2283.5
2262.5
2238.2
2211.7
2217.6
2200
2190.7
2181.9
2171.8
2179.4
2160.9
2176
2242
2287.3
2276
2151.2
1988.7
1877.4
1822.8
1831.6
1892.5
2075.6
2208.4
2253.3
2258.8
2240.3
2215.9
2202.5
2207.9
2189
2168
2159.2
2149.6
2152.9
2143.7
2164.7
2205.8
2300.8
2400.7
2399
2221
2137.8
2069.8
2100
2423
2718.2
2738.8
2718.2
2440.2
2372.6
2332.7
2272.2
2251.2
2202.5
2165.9
2153.3
2156.7
2134.4
2126.9
2141.6
2177.3
2270.1
2366.7
2376.4
2374.3
2211.7
2178.1
2090.8
2145.4
2272.2
2406.2
2457.4
2410.4
2370.9
2323
2276
2257.1
2232.3
2205.8
2192.8
2221.4
2215.5
2200.8
2177.7
2211.7
2294.9
2402.4
2427.2
2427.2
2419.6
2423.4
2228.9
2238.2
2644.3
2797.6
2765.3
2704.8
2671.2
2631.3
2574.6
2567.5
2461.6
2198.7
2170.1
2162.6
2151.2
2151.2
2145.8
2192.8
2283.5
2348.2
2336.5
2255
2472.1
2514.5
2510.3
2623.7
2848.4
2748.1
2956.4
2825.8
2735.5
2534.7
2320.9
2279.8
2273.9
2258.8
2228.5
2213.8
2210
2200.4
2207.9
2266.3
2338.1
2440.2
2398.6
2357
2697.7
2587.6
2576.3
2767.8
2916.5
2950.9
2939.6
2863.6
2807.3
2682.5
2347.4
2251.6
2245.3
2202.5
2158.8
2153.3
2149.6
2138.2
2101.7
2160.9
2213.8
2215.5
2088.7
2139.9
2221
2236.1
2564.9
2570.8
2550.2
2546
2585.9
2554
2533
2489.3
2470.4
2464.6
2436.4
2417.5
2408.3
2413.7
2399
2396.9
2404.5
2450.3
2465
2457.4
2400.7
2366.7
2313.8
2326.8
2378
2465
2549.8
2589.7
2567
2512.4
2468.3
2449.9
2417.5
2413.7
2396.9
2383.9
2368.8
2357.5
2351.6
2347.8
2359.1
2406.2
2493.5
2633.4
2663.2
2631.3
2701
2767.4
2763.6
2623.7
2812.7
2877
2882.9
2832.1
2788
2735
2686.3
2701.4
2699.3
2678.3
2650.6
2621.6
2434.7
2402.4
2400.3
2423.4
2499
2580.1
2553.6
2457.4
2349.5
2433.1
2391.1
2306.2
2533
2633.4
2641
2563.3
2480.1
2327.2
2287.3
2266.7
2232.3
2204.2
2176
2152.9
2139.9
2136.1
2137.8
2183.6
2263
2357.5
2336
2211.3
2139.5
2092.4
2378
2557.4
2636.8
2450.3
2449.9
2406.2
2370.5
2323.4
2260.9
2247.4
2202.1
2186.9
2162.6
2145.4
2145.8
2128.6
2142
2202.5
2263
2463.3
2735.5
2650.2
2710.7
2748.5
2765.7
2786.3
2824.1
2863.6
3048.8
2943.4
2909.3
2867.3
2773.3
2608.6
2211.7
2173.5
2139.9
2138.2
2130.2
2128.6
2122.7
2168
2228.5
2366.7
2423.4
2446.1
2413.7
2359.1
2349.9
2311.7
2332.7
2391.5
2398.6
2365
2332.7
2300.3
2260.9
2234.4
2200.4
2173.5
2152.9
2151.2
2139.9
2130.7
2128.1
2210
2251.6
2257.1
2176
2034.1
1979.5
1846.7
1956.4
1958.5
2158.8
2202.5
2260.9
2279.8
2270.5
2255.4
2228.9
2232.3
2204.2
2200.4
2186.9
2165.9
2185.3
2200.4
2190.7
2226.8
2283.5
2291.1
2209.6
2060.5
1911
1822.4
1833.7
1886.6
2038.3
2162.6
2244.1
2268.4
2264.6
2234
2211.7
2215.1
2186.9
2179.8
2170.1
2156.7
2151.2
2139.9
2143.7
2192.4
2255.4
2375.9
2412.5
2351.6
2375.9
2294.5
2213.8
2382.2
2366.3
2412.1
2421.3
2364.6
2332.7
2298.7
2260.9
2236.5
2200.4
2175.6
2166.4
2143.7
2126.5
2117.2
2123.1
2255.4
2737.1
2812.7
2625.8
2610.7
2688
2671.2
2769.5
2786.3
2873.2
2852.2
2799.7
2729.6
2667
2652.3
2578.8
2496.9
2448.2
2427.2
2376.4
2353.3
2349.9
2347.4
2361.2
2398.6
2474.2
2567.5
2627.5
2648.1
2659.4
2680.4
2657.8
2689.7
2686.3
2701
2670.8
2638.9
2627.5
2612.4
2665.3
2746.4
2806.9
2784.2
2752.3
2759.8
2756
2748.5
2775.4
2824.1
2890.4
2952.6
2975.3
2942.9
3124.4
3307.9
3310
3218.9
3196.2
3192.4
3198.7
3196.2
3138.2
2822
2688
2636.8
2616.2
2614.5
2582.2
2567
2559.9
2559.5
2550.2
2601.1
2644.7
2643.1
2572.9
2564.9
2546
2567
2620
2627.5
2631.7
2672.9
2678.3
2691.8
2654
2627.5
2595.2
2586.4
2580.5
2563.7
2552.3
2521.7
2417.9
2389.4
2255
2245.7
2294.9
2312.1
2300.3
2249.1
2117.2
2181.5
2589.7
2537.2
2240.3
2265.1
2228.5
2234.4
2226.8
2205.8
2175.6
2192.8
2164.3
2149.6
2139.9
2147.5
2134.4
2130.2
2124.8
2157.1
2189
2204.6
2207.9
2179.8
2210
2676.2
2709
2769.5
2818.2
2844.7
2907.2
2960.2
2961.8
2782.5
2367.1
2183.2
2159.2
2147.5
2124.8
2122.7
2109.7
2096.6
2109.7
2162.6
2234.4
2336.5
2326.8
2308.3
2245.3
2126.5
2060.5
2278.1
2355.4
2402.8
2414.2
2372.6
2340.2
2307.9
2279.3
2264.2
2232.3
2205.8
2173.9
2170.1
2170.1
2137.8
2145.4
2189
2256.7
2381.8
2438.5
2457.4
2415.8
2380.1
2383.5
2395.3
2395.3
2413.7
2396.9
2359.1
2323.4
2285.2
2243.6
2215.5
2191.1
2166.4
2152.9
2139.9
2131.9
2126.9
2139.9
2194.9
2253.3
2378
2419.6
2406.2
2392.7
2355.4
2391.5
2413.7
2419.2
2404.5
2383.5
2340.2
2304.1
2253.3
2236.1
2230.6
2189
2176
2139.5
2119.3
2117.6
2121
2117.2
2158.4
2234.4
2344
2308.3
2355.8
2374.3
2302.4
2266.3
2189.5
2181.1
2276
2311.7
2289.4
2270.5
2239.9
2196.6
2173.9
2151.7
2143.7
