Power [kW]
365
395
365
395
365
395
365
395
1079.5
1133.5
1745
1772.7
1095.3
1124.1
1738
1768
1169.1
1172.8
1142.8
1174
1144
1175.2
1146.3
1177.5
365
395
365
395
365
395
365
395
1070.2
1123
1737.8
1768.8
1094.7
1125.7
1739.7
1768.8
1166.8
1170.5
1141.6
1172.8
1144
1176.3
1146.3
1179.8
365
395
365
395
365
395
365
395
290
320
300
330
290
320
300
330
365
395
365
395
365
395
365
395
365
395
390.6
395
365
423
397.1
427.7
326.8
356.8
342.1
373.9
355.2
389.6
369.6
405
441.7
471.7
441.7
467.3
440
444.7
414
438
375.3
403.6
370.2
398.4
366.7
395
365
395
1066.6
1124.1
1740.3
1769.1
1097.7
1124.1
1741.5
1775
1177.3
1181
1152.2
1185.7
1156.9
1189.2
1160.4
1192.7
365
395
365
395
365
395
365
395
1090.1
1147.6
1762.6
1791.4
1116.4
1144.1
1759.1
1789.1
1190.2
1193.9
1163.9
1195.1
1165.1
1195.1
1165.1
1199.8
365
395
365
395
365
395
365
395
1086.6
1142.9
1755.5
1786.7
1110.5
1140.5
1761.4
1791.4
1192.6
1197.4
1169.8
1203.3
1174.5
1205.6
1176.8
1206.8
365
395
365
395
365
395
365
395
1098.3
1152.3
1764.9
1792.6
1116.4
1145.2
1760.2
1791.4
1192.6
1197.4
1168.6
1198.6
1168.6
1199.8
1167.4
1196.3
365
395
365
395
365
395
365
395
1086.6
1140.5
1753.2
1777.3
1102.3
1131.2
1747.3
1778.5
1179.7
1182.2
1153.4
1184.5
1156.9
1188
1159.2
1191.6
365
395
365
395
365
395
365
395
290
320
300
330
290
320
300
330
365
395
365
395
365
395
365
395
365
395
365
395
365
395
365
395
290
320
300
330
290
320
300
330
365
395
365
395
365
395
365
395
365
395
365
395
365
395
365
395
1072.5
1128.8
1743.8
1773.8
1097.7
1126.5
1741.5
1771.5
1171.5
1172.8
1142.8
1169.3
1141.6
1171.6
1142.8
1172.8
365
395
365
395
365
395
365
395
1078.4
1137
1752
1782
1107
1137
1754.4
1786.7
1189.1
1192.7
1163.9
1195.1
1167.4
1197.4
1168.6
1199.8
365
395
365
395
365
395
365
395
1092.4
1144.1
1754.4
1784.4
1103.5
1133.5
1747.3
1778.5
1178.5
1181
1152.2
1182.2
1151
1181
1151
1182.2
365
395
365
395
365
395
365
395
1079.5
1137
1749.7
1776.2
1098.8
1127.7
1742.7
1773.8
1176.2
1178.7
1151
1182.2
1152.2
1182.2
1154.5
1184.5
365
395
365
395
365
395
365
395
1076
1127.7
1739.1
1767.8
1092.8
1123.8
1739.1
1769.1
1175
1181
1153.4
1185.7
1158
1190.4
1162.7
1193.9
365
395
365
395
365
395
365
395
290
320
300
330
290
320
300
330
365
395
365
395
365
395
365
395
365
395
365
395
365
395
365
395
290
320
300
330
290
320
300
330
365
395
365
395
365
395
365
395
365
395
365
395
365
395
365
395
1067.8
1123
1736.8
1768.8
1091.8
1123.8
1737.8
1766.8
1166.8
1170.5
1140.5
1170.5
1141.6
1170.5
1141.6
1171.6
365
395
365
395
365
395
365
395
1070.2
1125.3
1738
1767.8
1091.8
1121.8
1737.8
1766.8
1168
1171.6
1141.6
1172.8
1145.2
1177.5
1147.5
1178.7
365
395
365
395
365
395
365
395
1081.9
1137
1750.9
1778.5
1100
1130
1743.8
1773.8
1175
1176.3
1148.7
1177.5
1147.5
1179.8
1149.8
1178.7
365
395
365
395
365
395
365
395
1072.5
1131.2
1743.8
1772.7
1094.1
1124.1
1738
1768
1169.1
1172.8
1144
1175.2
1147.5
1178.7
1149.8
1181
365
395
365
395
365
395
365
395
1076
1131.2
1743.8
1771.5
1094.1
1123
1738
1769.1
1170.3
1174
1142.8
1174
1144
1174
1145.2
1175.2
365
395
365
395
365
395
365
395
290
320
300
330
290
320
300
330
365
395
365
395
365
395
365
395
365
395
365
395
365
395
365
395
290
320
300
331.7
293.4
323.4
303.4
331.7
365
395
365
395
365
395
365
395
365
395
365
395
365
395
365
395
1081.9
1139.4
1754.4
1784.4
1111.7
1141.7
1759.1
1787.9
1189.1
1186.9
1156.9
1186.9
1155.7
1186.9
1156.9
1189.2
365
395
365
395
365
395
365
395
1086.6
1140.5
1754.4
1782
1107
1134.7
1749.7
1780.9
1180.9
1184.5
1155.7
1186.9
1159.2
1191.6
1162.7
1193.9
365
395
365
395
365
395
365
395
1087.7
1141.7
1754.4
1780.9
1104.7
1132.3
1745
1776.2
1176.2
1181
1152.2
1183.4
1153.4
1186.9
1156.9
1189.2
365
395
365
395
365
395
365
395
1090.1
1141.7
1752
1779.7
1104.7
1133.5
1748.5
1778.5
1177.3
1178.7
1148.7
1178.7
1148.7
1178.7
1148.7
1178.7
365
395
365
395
365
395
365
395
1076
1131.2
1742.7
1772.7
1096.5
1125.3
1739.1
1771.5
1175
1181
1154.5
1189.2
1162.7
1193.9
1165.1
1195.1
365
395
365
395
365
395
365
395
290
320
300
330
290
320
300
330
365
395
365
395
365
395
365
395
365
395
365
395
365
395
365
320
290
320
300
330
290
320
300
330
290
395
365
395
365
395
365
395
365
395
365
395
365
395
365
320
1076
1133.5
1748.5
1780.9
1107
1137
1754.4
1784.4
1109.4
1186.9
1160.4
1192.7
1166.3
1198.6
1169.8
1199.8
365
395
365
395
365
395
365
320
1091.3
1147.6
1761.4
1789.1
1111.7
1140.5
1755.5
1785.5
1110.5
1189.2
1160.4
1192.7
1163.9
1193.9
1162.7
1191.6
365
395
365
395
365
395
365
320
1079.5
1133.5
1746.2
1775
1098.8
1126.5
1740.3
1768
1094.1
1172.8
1142.8
1171.6
1142.8
1170.5
1141.6
1172.8
365
395
365
395
365
395
365
320
1077.2
1135.9
1750.9
1780.9
1105.9
1131.2
1746.2
1779.7
1108.2
1190.4
1163.9
1195.1
1167.4
1198.6
1169.8
1200.9
365
395
365
395
365
395
365
320
1094.8
1149.9
1762.6
1791.4
1114.1
1141.7
1753.2
1782
1108.2
1185.7
1155.7
1186.9
1156.9
1189.2
1163.9
1192.7
365
395
365
395
365
395
365
320
290
320
300
330
290
320
300
330
290
395
365
395
365
395
365
395
365
395
365
395
365
395
365
320
290
320
300
330
290
320
300
330
290
395
365
395
365
395
365
395
365
395
365
395
365
395
365
320
1079.5
1137
1752
1782
1108.2
1138.2
1753.2
1783.2
1107
1184.5
1155.7
1184.5
1154.5
1184.5
1154.5
1185.7
365
395
365
395
365
395
365
320
1079.5
1134.7
1748.5
1777.3
1100
1126.5
1740.3
1770.3
1095.3
1174
1146.3
1177.5
1149.8
1181
1154.5
1183.4
365
395
365
395
365
395
365
320
1084.2
1139.4
1753.2
1782
1104.7
1132.3
1746.2
1775
1101.2
1179.8
1151
1182.2
1153.4
1184.5
1154.5
1184.5
365
395
365
395
365
395
365
320
1076
1131.2
1743.8
1771.5
1096.5
1123
1739.1
1770.3
1097.7
1176.3
1147.5
1182.2
1155.7
1188
1162.7
1198.6
365
395
365
395
365
395
365
320
1099.5
1154.6
1767.3
1793.8
1116.4
1146.4
1760.2
1789.1
1115.2
1193.9
1163.9
1196.3
1166.3
1196.3
1167.4
1197.4
365
395
365
395
365
395
365
320
290
320
300
330
290
320
300
330
290
395
365
395
365
395
365
395
365
395
365
395
365
395
365
320
290
320
300
330
290
320
300
330
290
395
365
395
365
395
365
395
365
395
365
395
365
395
365
320
1104.1
1157
1768.4
1794.9
1116.4
1145.2
1760.2
1790.2
1115.2
1193.9
1162.7
1193.9
1163.9
1193.9
1163.9
1193.9
365
395
365
395
365
395
365
320
1094.8
1149.9
1763.8
1791.4
1112.9
1139.4
1753.2
1782
1108.2
1186.9
1158
1188
1159.2
1190.4
1161.6
1191.6
365
395
365
395
365
395
365
320
1088.9
1144.1
1754.4
1782
1104.7
1133.5
1748.5
1779.7
1104.7
1182.2
1152.2
1183.4
1155.7
1185.7
1155.7
1186.9
365
395
365
395
365
395
365
320
1093.6
1148.8
1760.2
1789.1
1112.9
1144.1
1759.1
1790.2
1118.8
1198.6
1169.8
1200.9
1172.1
1204.5
1175.6
1208
365
395
365
395
365
395
365
320
1106.5
1161.6
1773.1
1798.4
1119.9
1147.6
1760.2
1791.4
1116.4
1196.3
1167.4
1198.6
1169.8
1200.9
1172.1
1204.5
365
395
365
395
365
395
365
320
290
320
300
330
290
320
300
330
290
395
365
395
365
395
365
395
365
395
365
395
365
395
365
320
290
320
300
330
290
320
301.7
333.4
291.7
395
365
395
365
395
365
395
365
395
365
395
365
395
365
320
1085.4
1144.1
1759.1
1786.7
1111.7
1140.5
1755.5
1787.9
1116.4
1196.3
1168.6
1200.9
1173.3
1204.5
1176.8
1208
365
395
365
395
365
395
365
320
1099.5
1154.6
1768.4
1794.9
1117.6
1146.4
1760.2
1789.1
1112.9
1190.4
1161.6
1191.6
1161.6
1191.6
1163.9
1192.7
365
395
365
395
365
395
365
320
1080.7
1132.3
1745
1773.8
1097.7
1126.5
1741.5
1771.5
1096.5
1175.2
1146.3
1178.7
1148.7
1178.7
1152.2
1182.2
365
395
365
395
365
395
365
320
1087.7
1144.1
1757.9
1786.7
1110.5
1140.5
1754.4
1783.2
1107
1184.5
1155.7
1186.9
1156.9
1188
1159.2
1190.4
365
395
365
395
365
395
365
320
1087.7
1142.9
1756.7
1783.2
1107
1134.7
1748.5
1779.7
1104.7
1183.4
1154.5
1186.9
1158
1189.2
1160.4
1192.7
365
395
365
395
365
395
365
320
290
320
300
330
290
320
300
330
290
395
365
395
365
395
365
395
365
395
365
395
365
395
290
320
290
320
300
330
290
320
300
330
290
395
365
395
365
395
365
395
365
395
365
395
365
395
290
320
1071.3
1128.8
1742.7
1771.5
1095.3
1124.1
1739.1
1769.1
1095.3
1175.2
1146.3
1178.7
1149.8
1181
1153.4
1184.5
365
395
365
395
365
395
290
320
1081.9
1137
1749.7
1778.5
1102.3
1132.3
1746.2
1778.5
1105.9
1183.4
1153.4
1181
1151
1176.3
1146.3
1176.3
365
395
365
395
365
395
290
320
1069
1125.3
1739.1
1768
1092.8
1149.4
1764.4
1794.4
1118.4
1198.5
1165.9
1170.5
1140.5
1170.5
1165.9
1195.9
365
395
365
395
365
395
290
320
1076
1135.9
1752
1784.4
1109.4
1144.1
1756.7
1786.7
1114.1
1191.6
1161.6
1190.4
1159.2
1190.4
1161.6
1192.7
365
395
365
395
365
395
290
320
1092.4
1145.2
1760.2
1785.5
1109.4
1140.5
1753.2
1782
1109.4
1189.2
1159.2
1190.4
1162.7
1195.1
1163.9
1195.1
365
395
365
395
365
395
290
320
290
320
300
330
290
320
300
330
290
395
365
395
365
395
365
395
365
395
365
395
365
395
290
320
290
328.6
312.1
340.3
302.1
325.2
310.3
338.6
298.6
403.6
371.9
395
366.7
395
365
395
365
395
365
395
365
395
290
321.7
1068.2
1126.7
1773.1
1807.4
1135.2
1167.4
1782.4
1815.2
1140.2
1209.3
1146.2
1172.2
1146.2
1172.2
1140.3
1170.3
365
395
365
395
365
395
290
321.7
1068.2
1155.3
1775.9
1808.7
1137.2
1167.2
1782.8
1802.9
1129.2
1205
1174.6
1202.4
1172.4
1203
1172.4
1203
401.8
432.4
402.4
432.4
401.8
430.1
320.3
361.5
1106.6
1174
1790.5
1821.2
1167.1
1204.6
1823.9
1835.6
1155.7
1225.4
1192.4
1216.2
1181.9
1206.3
1149.4
1176.2
375.3
401.9
370.2
400.2
368.4
396.7
291.7
323.4
1067.2
1126.7
1742.7
1773.7
1099.7
1131.9
1746.9
1776.9
1098.7
1173.2
1142.2
1170.3
1139.3
1170.5
1142.8
1174
365
395
365
395
365
395
290
320
1067.8
1123
1736.8
1766.8
1091.8
1122.8
1737.8
1767.8
1091.8
1169.3
1139.3
1170.5
1139.3
1170.5
1140.5
1169.3
365
396.7
365
395
365
395
290
352.7
326.8
357.4
337.4
369.8
334.5
366.9
348.6
378.6
338
438.9
408.9
436.5
404.1
436.5
401.8
431.8
399.4
429.4
398.8
427.5
366.7
398.4
293.4
325.2
295.2
326.9
305.2
335.2
295.2
326.9
305.2
333.4
291.7
396.7
365
395
365
395
365
395
365
395
365
395
365
395
290
320
1065.5
1121.8
1740.7
1772.7
1127.5
1159.7
1778.1
1813
1138
1210.6
1178.4
1203.5
1176.3
1206.3
1174.1
1202.4
405.7
438
406.3
433.9
403.9
434.6
329.6
357.9
1100.4
1176.2
1817.4
1827.7
1152
1178.6
1788.6
1804.7
1096.7
1170.3
1141.6
1174
1145.2
1176.3
1146.3
1176.3
365
395
365
395
365
395
290
320
1074.8
1130
1742.7
1771.5
1095.3
1123.8
1736.8
1766.8
1093
1172.8
1145.2
1176.3
1147.5
1178.7
1153.4
1179.8
365
395
365
395
365
395
290
320
1073.7
1128.8
1741.5
1768
1091.8
1122.8
1739.7
1770.7
1094.7
1170.3
1139.3
1170.5
1141.6
1172.8
1145.2
1178.7
365
395
365
395
365
395
290
320
1069
1126.5
1740.3
1771.5
1098.8
1130
1743.8
1776.2
1101.2
1179.8
1151
1181
1151
1181
1153.4
1183.4
365
395
365
395
365
395
290
320
290
320
300
330
290
323.4
332.5
364.9
328.9
431.6
399.9
432.2
404.6
434.6
399.2
400.2
368.4
396.7
365
395
365
395
290
320
290
320
300
331.7
295.2
323.4
306.9
333.4
291.7
395
365
395
365
395
365
395
365
395
365
395
365
395
290
320
1077.2
1130
1743.8
1770.3
1093
1121.8
1738
1769.1
1094.1
1174
1145.2
1176.3
1148.7
1179.8
1149.8
1179.8
365
395
365
395
365
395
290
320
1074.8
1128.8
1740.3
1768
1092.8
1124.7
1741.7
1771.7
1097.7
1172.2
1140.3
1170.5
1144
1175.2
1144
1176.3
365
395
365
395
365
395
290
320
1065.3
1124.7
1743.7
1771.7
1096.7
1123.8
1736.8
1766.8
1091.8
1169.3
1140.5
1170.5
1140.5
1169.3
1165.9
1195.9
394.7
426.4
394.7
426.4
392.3
427.1
320.3
352.1
1097.4
1154.9
1773.1
1802.1
1130.5
1186.4
1801.4
1838.6
1165.7
1243.2
1237.2
1265
1213.2
1233.9
1177.3
1204
404.1
431.1
401.1
430.5
395.8
395
290
320
1065.3
1150.3
1765.3
1799.6
1123.3
1153.3
1768.3
1799.3
1097.7
1174.2
1144.2
1173.2
1142.2
1172.2
1141.3
1169.3
365
395
365
395
365
395
290
320
290
320
300
333.4
295.2
323.4
305.2
335.2
290
395
365
395
365
395
365
395
365
395
365
395
365
395
290
320
290
320
300
331.7
296.9
328.6
308.6
342.1
302.1
403.6
370.2
398.4
365
395
365
395
365
395
365
395
365
395
290
320
1066.6
1121.8
1740.7
1803.1
1140.8
1170.2
1780.2
1809.6
1136.8
1213.6
1179.3
1181.6
1171.8
1175.2
1143.2
1197.8
368.4
398.4
366.7
396.7
365
395
291.7
326.9
1069.2
1127.7
1742.7
1771.7
1095.7
1122.8
1738
1768
1093
1172.8
1144
1175.2
1144
1172.8
1142.8
1172.8
365
395
365
395
365
395
290
320
1065.5
1123.8
1741.7
1774.7
1099.7
1134.1
1749.1
1811.1
1134
1106.6
1149.4
1176.2
1144.2
1173.2
1143.2
1170.3
365
395
365
395
365
395
290
328.6
1107.7
1180.1
1802.2
1839.9
1167.7
1224.1
1846.8
1859.4
1184.4
1168.1
1208.1
1233.2
1200.4
1226.1
1199.5
1229.5
430.8
460.8
430.8
460.8
448.4
476.7
374.4
411.5
1157.4
1212.5
1830.6
1858.4
1184.4
1219.7
1837.8
1866.8
1191.8
1192.2
1234.1
1261.9
1231.9
1261.9
1232.9
1259.7
458.8
483.4
449
487.8
440.8
442.3
331.3
364.8
337.6
371
351
382.1
341.5
372.1
351.5
381.5
310.7
337.2
378.8
407.1
375.3
403.6
371.9
400.2
365
396.7
365
395
365
395
293.4
330.3
307.2
371
359.2
398
357.4
389.1
367.4
397.4
357.4
387.4
425.9
455.9
414.5
440.4
408
435.7
401.6
429.9
397.5
425.8
395.8
425.8
291.7
361.3
1104.7
1174.3
1786.5
1823.6
1153.5
1210.1
1822.9
1852.9
1174.6
1177.1
1216.8
1252.1
1227.3
1255.2
1222.1
1252.1
447.5
457.4
444
472.3
442.3
475
371
403.6
1144.7
1199.1
1810.9
1816.2
1144
1173.4
1781.3
1814.1
1133.5
1132.3
1175.6
1204
1173.4
1202.4
1170.8
1200.8
398.8
428.8
396.4
426.4
395.8
425.8
322.5
326.9
1068.2
1152.3
1767.3
1798.3
1122.3
1152.3
1768.3
1772.7
1097.7
1099.2
1142.2
1172.2
1140.3
1169.3
1140.5
1170.5
365
395
365
395
365
395
290
320
1065.5
1123
1737.8
1768.8
1092.8
1123.8
1765.3
1795.3
1120.3
1122.8
1167.8
1197.8
1167.5
1197.5
1167.5
1195.9
392.3
422.3
365
395
392.3
423
320.3
352.1
1094.8
1154.9
1772.1
1803.8
1129.8
1189.5
1809.7
1839.7
1171
1173.5
1218.5
1248.5
1218.5
1243.2
1210.1
1241.3
418.8
448.1
417.5
441
407
436.3
345.9
379.4
351.1
382.2
363.9
389.8
351.6
383.9
359.2
389.2
347.5
373.4
413.7
439.6
406.1
408.8
377.1
405.3
373.6
401.9
370.2
398.4
370.2
400.2
300.3
363.5
341.7
375.7
359.8
395
358
403.7
370.4
401
359.3
385.2
416.9
443.4
419.2
446.9
413.8
443.8
409.8
435.7
405.7
435.7
403.9
435.7
335.4
370.1
1119.6
1191.3
1834.9
1854.8
1193.1
1238.7
1862.6
1892.6
1214.6
1206.3
1246.4
1266.7
1231.4
1258.3
1230.2
1258.1
455
483.2
450.6
485.9
460.3
485.9
383.6
399.2
1140.6
1199.3
1816.4
1850.8
1163.4
1214.4
1829.4
1842.7
1167.7
1161.6
1201.7
1233.8
1203.8
1236.6
1203.8
1231.7
423.8
450.7
416
445.4
413
444.7
343.8
377.9
1128.4
1193
1821.8
1857.3
1186
1221.5
1839.5
1880.5
1201.3
1188.5
1223.1
1242.7
1208.4
1229.1
1192
1219.8
414.3
444.3
411.3
410.5
378.8
441.9
342.1
376.2
1120.7
1181.6
1791
1823.2
1146
1176
1793.2
1823.2
1146.7
1141.8
1182.5
1213.1
1185.9
1238.2
1208.2
1243.4
441.5
471.5
442.5
470.8
439.1
471.7
366.7
397.7
1144.4
1211.3
1832.7
1863.7
1198.9
1249.4
1867.4
1909.3
1229.1
1226.7
1266.9
1286.1
1245.4
1269.6
1234.3
1252.8
451.3
476
447.7
477.7
438.9
469.8
380.7
420
403.3
442.5
435.1
467.6
428
466.1
450.6
477.2
438.2
465.1
503
521.8
475.6
475
434.7
461.7
424.2
455.9
419.5
439.6
410.2
442.6
344
375.7
348.1
380.5
362.4
392.4
344.7
374.7
350.6
378.8
335.4
364.8
405.7
435.7
406.3
436.3
407
437
407.6
438.2
412.3
444.7
415.3
447
342
388.7
1132.9
1199.8
1817.9
1841.7
1176
1206
1817.9
1848.9
1179.1
1178.5
1220.4
1244.2
1207.9
1238.9
1212
1237.9
441
472.7
443.7
475.4
445.4
475.4
373.1
403.1
1146.8
1212
1831.3
1860.3
1189.3
1202.6
1823.7
1853.7
1167.1
1164
1206.9
1225.4
1193.3
1226.1
1191.1
1216.2
409.8
443.8
409.8
438
407.4
441.5
342.9
383.5
1152.6
1225.1
1853.3
1888.7
1215.6
1241.7
1847.8
1844.1
1165.9
1163.2
1189.4
1216.6
1186.8
1211.2
1174.1
1201.4
368.4
398.4
366.7
396.7
366.7
396.7
296.9
330.3
1071.2
1129.7
1744.7
1804.7
1134
1159.7
1772.5
1776.9
1124.3
1099.2
1143.2
1172.2
1141.3
1171.3
1140.3
1169.3
366.7
395
365
395
365
395
290
323.4
1069.2
1126.7
1743.7
1774.7
1106.2
1168.3
1783.3
1783.4
1106.2
1102.2
1144.2
1173.2
1141.3
1170.3
1139.3
1169.3
365
395
365
395
365
395
293.4
326.9
303.8
337.2
348.7
382.7
346.8
380.9
364.4
395
355
382.6
423.6
447.7
417.9
441.9
408.5
438.5
408.5
405.3
373.6
403.6
371.9
430.9
332.4
365.8
341.7
377.5
357.5
396.3
351.6
383.9
367.4
395.6
355.6
383.3
424.2
450.1
416.7
444.3
410.8
436.8
405
432.7
404.4
436.8
406.8
437.4
334.1
366.5
1114
1183.5
1792.9
1835
1157.8
1193.4
1805.6
1832.8
1158.5
1156
1198.2
1223.3
1191.1
1219
1186.8
1214.7
412.8
444.5
412.8
440.4
410.4
442.8
344.2
377.7
1123.9
1188.5
1808.4
1870.4
1200
1234.9
1869.7
1894.2
1210.7
1213.2
1242.6
1267.7
1232.8
1257.6
1223.3
1234.5
425
453.3
425
453.3
421.6
455.7
373.4
409.6
1175.4
1248.5
1871.6
1913.6
1238
1272.9
1906.5
1935.5
1247.8
1230.7
1255.2
1249.9
1195.8
1221.5
1186.6
1211.6
407.6
437
409.3
435.2
405.2
433.5
337.3
377.2
1139.6
1208.6
1821.7
1853.9
1177.9
1191.3
1822.9
1829.2
1154.8
1152.4
1192.4
1217.5
1188.1
1215.3
1185.3
1215.3
414.5
442.8
411
443.4
411
441.7
338.4
373.1
1118
1175.5
1788.4
1821.2
1167.1
1199.3
1812.1
1820.5
1138.4
1138.1
1108.1
1211
1176
1206
1174.3
1204.3
405.2
437.6
407.6
437
407
439.3
342.5
397.3
373.4
406.9
391.3
431.7
394.2
414.9
381.7
407.3
348.9
374.2
340.1
446.9
414.5
444.5
414.5
442.8
412.8
438.7
410.4
438.7
406.3
441
342.5
399
376.9
418
427.4
463.2
421.8
458
434.2
456.4
409.6
440.6
404.4
496.1
466.1
489
456.3
481.9
448.4
476.7
444
472.3
440.6
476
377.1
423
1203.6
1292.3
1944.2
1966.8
1286.7
1321.6
1942.3
1973.3
1281.9
1279.5
1238.8
1334
1283.5
1302.8
1272.8
1297.9
475.2
502.1
465
491.9
457.5
491.9
402.1
446.4
1232.8
1302
1931.6
1985.5
1291.5
1321.5
1943.5
1949.7
1250.6
1248.2
1218.2
1317.3
1277.6
1301.7
1272.7
1304.7
475.2
504.2
471.1
498.2
465.2
495.2
388
421.1
1165.6
1232.9
1850.6
1880.6
1198.9
1245.5
1859.7
1890.7
1205.7
1191.7
1153.3
1250.9
1224
1250.9
1216.6
1246.6
444.2
472.5
442.5
469.8
439.8
475.2
380.7
419
1192.9
1255.3
1892.9
1927.4
1246.7
1269.9
1891
1914.5
1229.2
1217.1
1168.5
1265.5
1225.9
1250.6
1218.5
1248.5
446.2
477.1
447.1
474.4
439.1
470
374.8
418
1197.7
1286.4
1926.1
1938.7
1272
1292.3
1920.6
1949.7
1260.3
1257
1209.5
1294.9
1245.4
1265.2
1235.2
1263.1
456.9
486.9
457.8
488.8
460.5
487.8
382.8
412.8
382.8
412.8
395.5
427.3
389.9
424.8
409.4
431.7
389
410.2
377.5
483.4
455.2
487.8
458.8
486.1
454.4
487.1
457.1
487.1
459.8
488.8
389.2
427.6
405.7
456.2
450
491.2
447.6
489.9
479.1
515.9
461.1
485.9
447.6
548.5
511.4
534.3
498.1
526
491.9
526
495
526
491.9
525
424
454
1250.3
1297.1
1936.4
1978.3
1297.3
1317.5
1942.8
1946.4
1262.2
1263.7
1212.3
1306.5
1265.8
1301.7
1251.2
1281.2
473.6
503.6
474.6
504.6
477.6
517.9
412.9
450
1228.8
1302.9
1948.3
1989.3
1312
1329.3
1968.4
1994.5
1296.4
1288.2
1252.4
1345.7
1309.8
1310.5
1235.7
1260.4
452.9
460.8
429.1
455
425
455
355.8
408.6
1155.7
1220.2
1841.3
1883.3
1205.8
1248.5
1855.2
1866.8
1181
1161.6
1127.3
1223.9
1191.8
1221.8
1189.6
1216.8
414.5
444.5
412.1
442.1
409.8
443.8
347
382.8
1135.9
1197.7
1823.7
1898.8
1213.7
1243.7
1879.7
1903.3
1210.7
1202.5
1161.8
1240.9
1208.8
1238.8
1198.9
1223.9
419.7
447.9
416.9
445.1
412.8
445.1
346.6
403.4
1156.6
1227
1854.2
1903.6
1239.9
1254.3
1868.1
1887.1
1213.6
1204.4
1163.7
1263.8
1229.7
1240.9
1228.5
1257.3
452.1
483
451.3
484
454
485
384.4
413.6
389
431.9
436
473.8
427.3
455.2
455.9
474.7
421.2
451.2
422.1
502.6
468.6
496.9
484.8
514.8
484.8
515.7
481.7
510.7
480.7
514.8
413.8
457.1
433.3
480.7
469.9
502.3
456.8
486.8
475.7
497.9
450.7
476.6
439.5
538.3
505.2
532.1
509.3
535.2
505.2
525
495
517.9
491.9
521.9
420
425.7
1179.1
1222.8
1837.8
1866.8
1187.7
1217.7
1834.9
1861.8
1184.6
1181.9
1155
1260
1224.7
1254.7
1221.6
1249.4
449.8
478.1
448.1
483.4
453.4
483.4
381.1
413.8
1157.9
1222.8
1847.3
1877.3
1224.2
1285.4
1925.4
1972.8
1287.5
1262.7
1217.1
1332.9
1298
1332.9
1297
1285.2
461.9
481.1
446.7
474
442.3
476.7
371.7
404.4
1149.2
1208.9
1818.6
1853.9
1180.1
1213.2
1806.3
1855.1
1161.3
1163.8
1126
1228.9
1193.9
1221.8
1189.6
1221.1
417.9
445.6
415.6
443.8
415.6
447.9
344.7
378.8
1123.2
1186.3
1800.7
1830.7
1157
1201.4
1817.4
1845.3
1168.1
1168.4
1135.3
1221.5
1208.2
1236
1209.1
1239.1
437.1
467.1
438.9
468.9
420.5
470.6
371.7
409.6
1170.5
1248.5
1879
1920
1234.1
1273.8
1862.6
1903.6
1229.2
1216.1
1175.4
1263.6
1231.6
1240.9
1203.8
1228.9
420.7
444.3
409.6
437.8
406.1
438.5
337.6
371.7
345.1
379.2
365
401.5
370
406.8
408.1
441.4
396.5
433.7
370.6
468.8
450.9
475
438.9
450.5
417.5
442.8
411
443.4
411.7
467.1
370
413.2
402.3
446.6
442.9
479.6
442.2
468.2
456.4
482.1
441.3
468.2
428.9
529.9
487.3
506.1
474
492.8
456.7
488.4
457.7
485
458.6
493
389.7
431.9
1220.1
1303
1944.5
1985.5
1313
1347.9
1971
2001.9
1308.1
1295
1250.4
1344.6
1304.9
1324.1
1279.5
1302.7
482.1
504
471.9
501.9
468.8
502.8
409
453.3
1230.8
1314.7
1957.4
2004.8
1320.8
1360.5
1991.3
2009.3
1314.9
1318.4
1259.1
1348.5
1301.9
1327
1292.1
1311.4
493.1
516.9
486.9
516.9
487.9
516.9
424
461.2
1224.9
1307.8
1933.8
1975.7
1288.5
1324.3
1960.3
1992.2
1299.2
1301.7
1247.3
1320.1
1291.1
1316.2
1284.3
1308.5
491.9
521.9
488.8
517.9
487.9
525
417.9
451
1220
1294.1
1928.3
1974.8
1305.1
1329.2
1955.7
1996.7
1317.8
1314.5
1269.9
1358.3
1307.8
1328.1
1287.3
1308.5
482.1
501.9
464.7
492.1
462.1
501.9
408.1
445.2
1224
1280.6
1925.1
1960.6
1267.1
1306.9
1938
1945.1
1240.8
1238.4
1192.8
1298.8
1269.7
1300.7
1260
1279.2
478.8
505.7
472.6
506.7
476.7
513.8
420
460.2
437.4
480.7
468.9
503.3
457.8
490.9
472.3
502.3
453.8
486.8
449.7
544.5
507.3
530.2
496.2
523.1
489
520
490
516.9
482.9
521
422.1
466.4
440.4
477.6
476.6
514.4
453.8
484.7
460.7
468.4
416.7
441.7
407.6
507.6
473.6
497.8
464.2
488.8
456.1
486.1
453.4
479
450.8
407.5
373.1
404
1145.4
1202.9
1812.6
1847.9
1176
1202.9
1816.9
1846.9
1169.8
1174.4
1139.2
1169.2
1139.2
1241.1
1207.9
1234.8
432
443.6
411.2
441.2
432
387
358.7
393.1
1129.8
1189.5
1817.9
1842.9
1165.7
1201.9
1816.9
1846.9
1163.6
1172.3
1139.2
1169.2
1139.2
1244.2
1214.2
1243.2
440.8
471.7
441.7
470.8
439.1
394.1
365.8
400.2
1150.9
1218.9
1835.1
1878
1185.8
1211.5
1820.3
1848.1
1183.7
1180.9
1147.8
1172.5
1142.5
1247.5
1218.5
1247.5
445.2
475.2
443.5
473.5
445.2
399.2
369.2
401.9
1146.8
1209.6
1829.9
1857.7
1196
1218
1829.9
1859.9
1179.6
1182.1
1149.9
1174.7
1144.7
1249.7
1220.6
1250.6
446.9
477.9
445.2
475.2
445.2
404.6
374.6
404.6
1148.7
1212.5
1816.9
1854.1
1191.6
1221.8
1869.3
1898.3
1209.6
1196.5
1160.2
1189.1
1160
1268.1
1237.2
1266
461.5
488.8
458.8
489.8
464.2
419.2
391.9
435.7
411.9
437.9
422.5
461.7
427.5
462.8
444.3
472.4
424.9
441.8
405.6
427.5
382.1
489.4
458.6
488.6
451.5
474
420.9
450.9
420.9
399
375.2
412.3
396.1
431.1
420.1
451
407.3
436.4
415.7
442.3
401.1
432.1
398
425
386.9
489.2
461.1
488.6
460.3
490.3
460.3
490.3
460.3
418
393.8
427.8
1177.2
1246.4
1905.1
1942.5
1275.9
1311.7
1948.3
1967.4
1293.4
1279.3
1238.6
1259.8
1203.5
1303.6
1267.7
1298.7
484.8
517.9
487.9
511.7
487.9
442.9
412.9
446.9
1209.3
1282.4
1925.4
1972.8
1287.5
1356.7
1990.6
1980
1287.6
1285.2
1239.6
1263.8
1223.1
1313.4
1278.5
1297.8
476.9
502.8
473.8
499.8
469.8
435
416.2
455.4
1225
1282.5
1926.1
1957.1
1287.6
1317.6
1933.5
2010.9
1293.5
1285.2
1256.2
1275.5
1235.7
1330.9
1296.1
1326.1
495.2
526.2
492.1
519
489
448.1
426.2
463.3
1239.6
1328.3
2002.2
2056.5
1359.1
1422.4
2060.9
2090.9
1399.6
1394.9
1350.6
1373.4
1336.3
1367.9
1347.7
1367
527.6
553.5
516.4
538.3
501.2
462.3
441.6
473.7
1258.1
1325.4
1951.9
2014.8
1344.8
1379.5
1975.7
2044.4
1356.6
1381.8
1351.8
1366.3
1310.2
1377.7
1342.8
1391.8
531.6
553.5
516.4
542.4
509.3
464.3
443.5
467.6
445.7
471.6
463.6
496
460.1
488.2
480.1
505.8
451.3
477.2
438.9
461.8
421.6
544.9
499.3
523.1
489
522.1
489
519
481.9
447.1
427.3
470.7
439.7
484
471.8
507.2
458
489
472.8
499.4
450.9
480.9
443.7
470.7
425.2
523.1
473.6
507.6
481.7
511.7
481.7
511.7
485.7
444.8
418.8
451.9
1211.2
1285.3
1948.2
1995.9
1310.6
1330.8
1942.7
1948.3
1244.6
1238.3
1186.9
1211
1181
1286
1250.2
1280.2
472.6
502.6
476.7
506.7
476.7
435.7
405.7
438.8
1191.8
1249.3
1886
1921.5
1246.6
1281.4
1910.9
1939.9
1254.3
1247.1
1238.5
1265.6
1222
1326.1
1296.1
1321.2
492.1
518.1
485
511.9
478.8
444
421.2
456.4
1229.9
1292.3
1915.1
1950.6
1263.2
1281.5
1892.2
1921.3
1231
1223.8
1187.9
1214
1184
1284.1
1254.1
1278.3
470.7
500.7
466.7
500.7
470.7
425.7
396.7
420.9
1175.2
1237.6
1859.3
1901.2
1223.2
1243.4
1854.8
1878.3
1208.5
1211
1181
1211
1181
1290.9
1256
1286
472.6
506.7
480.7
510.7
480.7
438.8
412.9
454
1229.8
1319.5
1949.3
1983.8
1292.4
1364.8
1983.8
2021.6
1333.8
1289.1
1253.2
1282.3
1252.3
1347.5
1297
1320.2
495.2
524.2
489.2
516.2
482.1
433.1
407.1
438.1
412.1
440
414.7
434.5
397.6
434.8
423.4
454.4
412.9
444.8
414.8
444.8
414.8
520.7
493.8
523.8
497.9
527.9
497.9
528.8
498.8
453.8
426.9
464.1
434.1
506.8
478.6
512
468
508.3
492.1
547.9
481.3
499
465.9
488.8
458.8
544.3
514.3
540.2
506.2
535.2
501.2
527.1
493.1
455.2
428.3
467.6
1252.3
1318.6
1939
2021.6
1348.1
1379.1
2015.8
2045.8
1356.3
1344.5
1307.3
1299.8
1264
1363.1
1307.7
1342.6
505.2
535.2
502.1
536.2
510.2
469.3
469.4
508.7
1292.8
1403.3
2054.4
2067.6
1381.7
1426
2047.8
2094.5
1396
1325.2
1283.1
1313.1
1240.5
1340.6
1305.7
1338.7
500.2
521.2
483.1
505.9
475.9
438.1
415.2
456.4
1229.9
1298.1
1933.5
1968
1288.6
1353.8
1949
2010.9
1292.5
1289.2
1254.3
1268.7
1232.8
1327.1
1285.4
1309.6
482.3
509.2
479.2
500
466.9
429
409.2
452.5
1227
1305
1929.7
1977.1
1285.7
1305.9
1930.6
1955.1
1271.1
1269.6
1229.9
1256.9
1221.1
1316.3
1275.6
1305.6
489
519
488.1
518.1
487.1
445.2
416.2
453.3
1216.2
1278.6
1898.7
1939.6
1268.1
1303
1927.1
1942.5
1255.4
1247.1
1215.2
1241.3
1206.4
1305.6
1275.6
1305.6
485.9
515.9
485
515.9
481.9
440
409
442.1
412.1
441.2
421
451
408.1
433.1
403.1
425.3
385.3
415.3
385.5
412.8
382.8
487.8
460.5
494.2
464.2
494.2
466.9
499.5
469.5
421.9
391.9
419.2
391.9
421.9
401.9
437.9
411.9
454.3
440.4
463.6
426.4
460.4
419.2
450.2
419.2
524.2
491.2
513.1
472.8
494.7
463
488.6
458.6
418
393.8
438.1
1197.7
1270.8
1891.3
1938.7
1257.4
1291.3
1908.7
1945.1
1267.1
1263.8
1228.9
1249.1
1203.5
1304.6
1274.6
1289
476.9
503.8
469.8
503.8
477.8
440
414
452.3
1229.9
1305.9
1939
1969
1288.6
1315.6
1935.4
1943.5
1258.2
1260.7
1220
1250
1216.1
1321.1
1291.1
1326
501
535
501
531.9
496
442.9
416.9
450
1219.1
1280.5
1924.5
1965.4
1292.4
1316.6
1982.8
1982.9
1295.4
1293
1251.3
1280.4
1241.6
1340.7
1300.9
1320.2
488.1
518.1
481.9
511.9
477.8
443.1
415.2
448.3
1225
1288.3
1921.6
1957.1
1278.8
1299.1
1910.6
1939.6
1254.4
1245.2
1215.2
1236.4
1207.4
1311.4
1271.7
1296.8
480.7
507.8
468.8
494.7
467.8
426.9
407.1
443.3
1211.4
1283.5
1911.3
1960.6
1281.8
1316.7
1937.1
1967.1
1264.2
1266.7
1231.8
1251.1
1216.2
1315.3
1286.3
1310.5
492.1
519
485.9
519
489
443.1
416.2
449.2
419.2
450.2
437
453.4
411.9
452.1
438.5
477.2
432.6
462.6
425.4
454.5
418.3
521.2
490.2
520.2
487.1
514
484
515
477.8
440.9
417.1
451.2
431.4
468.5
455.9
493.6
455.9
481.8
470.4
503.8
457.1
484
442.6
467.4
437.4
536.2
499
529
499
521.9
488.8
521.9
491.9
451
431.2
471.4
1245.4
1312.7
1943.8
1967.4
1282.7
1318.5
1938.3
1955.4
1271
1268.6
1227.9
1253
1223.9
1320.1
1300.9
1331.8
508.1
538.1
501.9
539.1
512.1
471.2
463.2
499.4
1277
1350.3
2006.6
2061.1
1352
1402.1
2015.6
2045.6
1363.8
1354.5
1262.9
1297.8
1262
1363
1323.3
1357.2
518.3
548.3
517.4
547.4
514.3
473.3
446.4
479.5
1262.9
1325.3
2023.3
2052.1
1363.8
1408.1
2031.1
1986.7
1275.8
1302.1
1262.9
1288
1248.3
1367.4
1313.5
1343.5
512.1
541.2
506.2
529.3
500.2
457.3
418.1
438.8
1186.9
1254.2
1896.1
1919.6
1250.5
1301
1926.4
1949.9
1251.4
1249.1
1214.2
1239.3
1211.2
1316.2
1292.1
1327.9
506
531.9
500
525
495
449
422.1
458.3
1230.8
1299.1
1922.5
1969
1288.6
1353.8
1980.9
2011.9
1323.8
1295
1255.2
1279.4
1239.6
1339.8
1303.9
1329
499.5
526.4
493.3
509
476.9
439
420.2
460.4
440.7
472.8
468.5
505.2
461.3
487.3
471.8
508.6
456.1
486.1
449.9
477.8
438.5
543.5
506.4
533.3
496.2
527.1
494
521
490
455.2
434.5
470.7
450.9
491.1
487.3
516.4
471.3
506.5
488.3
518.3
467.3
491.1
458
478.7
442.6
546.6
506.4
536.4
503.3
527.1
497.1
523.1
493.1
459.3
432.3
469.5
1243.5
1322.4
1948.3
2014.8
1297.3
1327.3
1950
1972.6
1275.9
1276.4
1232.7
1256.9
1222
1327
1297
1322.1
501.2
531.2
497.1
531.2
501.2
460.2
437.4
471.4
1229.8
1292.2
1916.4
1947.3
1275.8
1290.2
1922.8
1983.7
1275.8
1278.3
1267.2
1292.4
1262.4
1367.4
1313.5
1343.5
512.1
542.1
509.1
531.9
510
468.1
466.3
471.2
1248.3
1324.7
1959.2
1936.3
1275.8
1309.7
1944.8
1974.8
1282.7
1279.3
1237.6
1256.9
1221.1
1314.4
1282.5
1305.7
483.3
503
465
490.9
459.2
415.1
390.9
428
1195.8
1264
1895.8
1937.7
1264.3
1293.3
1923.2
1955.1
1271.1
1268.7
1225
1240.3
1204.5
1298.8
1262.9
1288
477.8
496.7
466.7
497.6
463.2
429.8
410
448.1
1212.3
1279.5
1923.5
1953.5
1273.9
1299.1
1928
1958
1269.1
1255.9
1221.1
1246.2
1211.3
1316.3
1286.3
1316.3
496.2
526.2
497.1
527.1
497.1
452.1
427.1
460.2
421
463.1
460.7
491.6
475.6
506.8
513.5
533.3
487.3
522.2
489.1
514.9
483
583.7
528.5
552.4
522.4
545.2
518.3
545.2
508.1
474.3
453.5
513
486.1
532.7
521.5
559.5
516.9
554.3
546.2
574
521.2
545
510.1
532.7
499.6
601.5
568.4
596.5
562.3
589.2
556.1
578.7
531.6
485.7
464
502.1
1337.8
1429.6
2068.7
2114.2
1430.6
1453.4
2094.4
2115.4
1415.1
1403.3
1357.8
1354.5
1336.3
1415.2
1378
1376.7
532.8
559.7
531.6
558.5
524.5
479.5
451.6
487.8
1308.3
1365.8
2000.3
2020.6
1333.8
1401.5
2040.1
2046.8
1358.2
1360.7
1259.1
1268.6
1233.7
1342.6
1301.9
1326.1
494.2
520.2
486.2
508.1
474
439.2
415.4
453.5
1232.8
1305
1946.1
2009
1330
1350.9
1947.1
2009
1291.5
1283.3
1241.6
1260.9
1221.1
1320.3
1290.3
1315.4
490.4
514.2
480.2
510.2
470.9
433.1
413.3
453.5
1232.8
1305
1939.7
1976.1
1290.6
1358.1
1947.1
2008
1278.9
1286.3
1246.5
1260.9
1226
1321.3
1285.4
1315.4
487.3
520.4
490.4
517.3
470.9
440.2
420.4
455.6
1236.8
1298.2
1940.7
1969.7
1326.2
1313.8
2000.4
2014.8
1328.1
1323.4
1257.2
1282.4
1242.6
1343.7
1298.1
1291
492.3
516.2
482.1
509
468.8
438.1
424.5
464.7
444.9
484.2
469
501.8
456.1
489.2
475.2
504.3
449
476.8
443.7
470.7
435.4
540.4
509.5
535.4
498.3
528.3
495.2
522.1
496.2
455.2
427.3
471.6
451.8
496.1
486.8
516.8
473.2
503.2
493.6
527
473.2
499.2
463
482.8
445.7
548.7
512.6
543.5
511.4
538.3
509.3
535.2
502.1
453.1
427.1
461.2
1245.4
1312.7
1985.7
1985.7
1299.2
1325.3
1987.6
1986.7
1295.3
1292.9
1257.1
1276.4
1241.5
1341.6
1310.6
1335.7
510.2
537.1
504.1
534.1
496.9
460
447.4
483.5
1267.8
1374.8
2016.8
2062.3
1370.6
1416.8
2040.1
2062.3
1366.3
1380.6
1336.3
1352
1286.8
1386.9
1352
1357.2
518.3
544.3
510.2
543.3
509.3
474.5
460.9
500.2
1323.5
1409.6
2048.8
2094.3
1393
1423
2064.3
2078.8
1406.7
1383.1
1345.8
1368.7
1330.3
1397.8
1356.9
1382
544.4
549.3
519.3
568.2
516.2
493.2
469.4
477.4
1277
1346.7
2018
2071.2
1373.3
1390.2
2018
1991.6
1295.9
1302.1
1267.2
1273.4
1243.4
1343.5
1308.6
1338.6
510
542.1
508.3
533.3
496.2
455.2
434.5
474.7
1262
1370
2013.9
2050.7
1368.7
1405.8
2021.7
2058.5
1365.8
1353
1309.7
1326.3
1266
1361.2
1305.8
1340.7
502.3
535.4
502.3
528.3
496.2
454.3
435.4
478.7
454.9
481.8
481.5
520.7
474.6
507.7
493.2
518.8
472.5
496.3
456.1
558
518.7
540.6
507.6
537.6
501.4
524.2
491.2
517.1
480
442.1
426.4
469.7
445.9
491.3
480.1
513.5
472.7
506.7
484.9
510.6
465.1
496.5
460.3
559.2
526.1
543.7
514.7
537.6
501.4
528.3
498.3
526.2
489
452.1
433.3
473.5
1268.8
1356.7
2016.8
2037.1
1377.7
1407.7
2038.1
2069.1
1369.6
1364
1319.7
1409.4
1341.9
1357.3
1333.1
1353.4
519.5
547.4
520.5
517.9
491.9
442.9
420
464.3
1250.3
1323.4
1993.5
2046.8
1356.3
1399.6
2037.2
2067.2
1358.6
1346.8
1295.3
1364.2
1329.3
1343.7
1314.6
1335.8
498.3
528.3
494.2
518.1
488.1
440
427.3
462.6
1256.2
1313.7
1980.9
2026.4
1352.4
1382.4
2012.9
2034.2
1330
1295
1249.4
1344.6
1309.8
1334.9
1298.1
1317.3
491.4
515.2
482.1
508.1
475
426.9
411.2
450.4
1227
1289.4
1930.6
1967.1
1290.6
1320.6
1978
1971.6
1279.9
1282.4
1242.6
1338.8
1293.2
1323.2
1288.3
1318.3
489.2
515.2
482.1
506.9
476.9
431.9
415.2
455.4
1234.8
1303
1931.6
1967.1
1291.5
1315.7
1942.6
1956.1
1267.1
1265.7
1225
1325.1
1295.1
1324.1
1289.3
1313.4
483.1
517.1
476.9
495.7
473.8
437.9
418.1
456.4
433.7
470.9
456.4
489.8
444.9
474.9
460.7
483.9
435.6
463.5
426.4
528.3
498.3
528.3
496.2
525.2
494.2
517.1
485
515
485
443.1
420.2
457.3
437.6
476.8
468.5
499.9
452
485.1
463.1
487.3
436.6
460.4
428.3
527.1
497.1
524
491
516.9
487.9
521
491
517.9
487.9
446.9
419
456.2
1222
1291.3
1921.6
1962.6
1278.8
1303.9
1922.5
1941.6
1254.4
1257.9
1226.9
1326.1
1297
1327
1298
1328.9
505.2
531.2
497.1
528.1
500
451
422.9
452.9
1211.2
1268.7
1899.9
1941.8
1269.9
1299.9
1959.2
1970.2
1273.9
1270.5
1235.6
1340.6
1305.7
1331.8
1300.9
1324.1
499
525
490
512.9
481.9
444
421.2
460.4
1235.7
1303
1940
2012.8
1324.8
1361
1997.4
2018.7
1323.8
1281.3
1235.7
1335.8
1295.1
1319.3
1284.4
1314.4
487.1
513.1
480
506.9
476.9
431.9
412.1
448.3
1228.9
1297.1
1931.6
1972.6
1290.6
1320.6
1940.7
1976.1
1284.7
1281.4
1240.7
1335.9
1301
1326.1
1286.4
1306.6
474
504
471.9
494.7
463
424.8
412.1
460.6
1243.6
1321.5
1980
2018.7
1347.2
1369.1
2014.8
2044.8
1326.7
1288.1
1252.3
1347.5
1306.8
1331.9
1301.9
1316.3
496.2
519
485.9
512.9
479.8
441.9
429.3
471.6
459
501.3
498.5
525.1
488.7
520.8
501.9
523.6
474.2
510.6
471.3
573.2
529.7
557.8
527.8
551.6
517.6
540.4
510.4
530.2
503.3
455.2
435.4
472.6
460.9
497.1
491.2
534.7
493.7
526.8
511.5
496.5
480.4
510.4
474.2
575.2
536.9
558.8
531.8
555.7
518.5
545.4
511.4
531.2
501.2
456.2
440.4
480.7
1301.1
1388.2
2068.7
2087.5
1386.8
1438.3
2071.1
2108.9
1400.2
1382.1
1337.8
1419.5
1340.9
1375.8
1330.2
1360.2
521.6
548.5
515.4
546.4
519.5
471.4
444.5
479.5
1262.9
1374.8
2010
2047.7
1366.3
1389.1
2018.7
2059.9
1365
1352
1262.9
1357.2
1322.3
1347.4
1312.5
1343.5
512.1
542.1
512.1
543.1
513.1
471.2
463.2
496.3
1283.1
1350.3
1976.9
2045.6
1349.5
1344.3
1959.2
1989.2
1299.6
1302.1
1267.2
1367.4
1337.4
1343.5
1313.5
1362.5
541.3
546.2
516.2
546.2
535.2
471.2
466.3
499.4
1283.1
1340.6
1976.9
2006.9
1320.3
1350.3
1975.7
2000.2
1304.5
1302.1
1277
1373.4
1343.4
1372.2
1342.2
1367.4
541.3
566.4
536.4
539.1
501.9
459.1
420
456.2
1227.9
1305.9
1940
1980.9
1324.8
1377.2
2013.9
2042.9
1346.2
1334.4
1261.1
1355.4
1314.6
1332.9
1293.2
1323.2
493.3
520.2
486.2
509
479
430
410.2
450.4
427.5
468.7
455.4
497.5
451.1
484.2
481.1
504.3
451.1
476.1
435.9
527.5
504.7
521.4
479
509
480
505.9
480
510.9
481.9
436.9
416
459.3
436.4
475.7
461.2
491.2
455.9
483.8
472.3
498.9
450.7
476.6
441.4
540.2
507.1
534.1
500
534.1
501
526.9
496.9
523.8
497.9
452.9
421
461.2
1246.4
1309.8
1945.5
2012.8
1333.8
1357.6
1952.9
1982.9
1291.5
1283.2
1249.3
1348.5
1313.6
1338.7
1303.8
1333.8
509.3
539.3
510.2
540.2
506.2
461.2
438.3
478.5
1260
1370
1998.4
2039
1351
1367.7
2010
2058.5
1352.4
1333.5
1254.3
1343.7
1302.9
1327.1
1285.4
1310.5
477.1
504
470.9
505
471.9
430
407.1
446.4
1227
1290.3
1929.7
1971.6
1290.6
1309.9
1929.7
1970.7
1275
1273.6
1227.9
1328.1
1287.3
1317.3
1277.6
1296.9
479
505.9
472.8
498.8
463
423.8
411.2
444.2
1218.2
1290.3
1925.1
1948.7
1275.9
1310.8
1930.6
1960.6
1254.5
1253.1
1212.3
1311.5
1276.6
1296.9
1261
1286.1
471.9
497.8
462.1
492.1
459.4
417.1
392.8
443.3
1211.4
1284.5
1917.7
1953.2
1275
1309.9
1936.1
1971.6
1275
1267.7
1227
1328.1
1286.4
1306.6
1278.5
1291
481.9
498.8
462.1
493
463
423.8
408.1
451.4
434.7
478
459.8
504.3
461.3
484.9
469.4
499.4
447.8
473.7
437.6
538.5
505.4
529.3
499.3
528.3
495.2
519
481.9
515.9
478.8
433.8
418.1
459.3
443.5
482.8
480
516.8
482.5
508.3
484.4
514.4
472.1
502.3
469.2
569
535.9
558.8
522.6
552.6
519.5
542.4
512.4
539.3
510.2
461.2
435.2
475.5
1256.1
1324.3
1986.7
2033.2
1380.6
1409.6
2041
2078.8
1379.6
1366.9
1322.6
1420.4
1345.8
1371.8
1337
1361.1
521.4
548.3
514.3
544.3
506.2
542.4
447.6
474.5
1265.9
1327.3
1984.8
2013.8
1342
1372
2001.2
2015.7
1287.5
1285.2
1325.3
1350.4
1320.4
1344.6
1304.8
1334.8
502.1
525
502.1
525
496
526
430
467.1
1258
1330.2
2010.9
2067.6
1372.1
1408.1
2037.6
2033.2
1337.7
1333
1337
1362.1
1327.2
1353.3
1317.4
1342.5
514.3
533.1
506.2
542.4
508.3
535.2
437.4
477.6
1270.8
1364.8
2015.8
2062.3
1385.8
1415.8
2046.9
2076.9
1378.7
1359.7
1383.3
1406.1
1346.7
1370.9
1340.9
1355.3
519.5
549.5
516.4
539.3
509.3
536.2
438.3
478.5
1262
1319.5
1944.8
1974.8
1290.4
1319.5
1942.8
1969.3
1278.7
1270.5
1308.7
1327
1292.1
1317.3
1282.4
1311.4
493.1
515.9
485.9
512.9
481.9
508.8
406.9
447.1
422.3
458.5
447.7
483.5
441.1
469.7
451.5
477.2
431.4
451.2
492.1
518.1
488.1
518.1
480.9
503.8
473.8
500.7
470.7
494.9
460.5
487.8
399.8
447.1
430.4
462.6
453.9
494.1
448
482
464.1
493.1
441.8
463.7
503.5
531.4
494.2
518.1
485
508.8
486.9
513.8
479.8
502.6
476.7
503.6
412.9
459.3
1252.3
1324.4
2005.2
2051.7
1369.6
1414.9
2055.6
2077.8
1385.8
1358.8
1389.5
1373.8
1334.1
1354.3
1318.5
1342.6
507.3
531.2
501.2
529
499
529
431.2
475.5
1271.7
1388.2
2034.2
2095.3
1415.4
1431.1
2065.3
2095.3
1394
1374
1412.5
1427
1341.8
1361.1
1325.3
1340.6
514.3
540.2
508.1
538.1
509.1
539.1
441.2
480.5
1292.8
1380.7
2023.3
2061.1
1379.3
1396.2
1964.7
1995.9
1285.5
1283.2
1323.3
1378.3
1342.2
1377.1
1347.1
1382
516.4
543.3
501
531.9
501.9
531
421
456
1216.1
1274.6
1894.4
1941.8
1255.3
1284.3
1894.4
1936.3
1255.3
1247.1
1292.1
1316.2
1286.2
1314.3
1268.7
1298.7
481.7
511.7
481.7
510.7
472.6
502.6
397.6
440.9
1194.7
1263
1894.1
1929.6
1270
1299.1
1928
1974.5
1284.7
1276.4
1321.4
1337.7
1301.9
1324.1
1289.2
1307.5
487.9
510.7
480.7
506.7
472.6
509.8
416
457.1
437.4
466.4
453.4
480
436.4
463.3
443.3
473.3
427.1
461.2
504.1
533.1
500
529
500
530
500
526
491.9
516.9
480.7
506.7
398.6
437.9
421.2
456.4
443.8
476.2
432.6
457.5
428.3
459.2
408.1
434
470
493.8
462.1
488.4
454
481.3
448.6
478.6
446
474.2
444.2
472.5
374.6
412.5
1168.5
1251.4
1881.9
1922.9
1252.6
1282.6
1904.8
1934.8
1246.7
1233.6
1272.8
1293
1242.5
1264.5
1242.5
1267.6
455.7
485.7
451.3
481.3
452.3
479.6
383.4
428
1205.5
1284.5
1917.7
1965.2
1290.6
1319.6
1978
1975.2
1283.8
1271.6
1306.9
1332
1292.2
1311.5
1271.7
1286.1
475
497.8
464.7
493
463
490.3
408.1
445.2
1228.9
1306.9
1942.6
2017.7
1337.2
1361
1988.7
2010.9
1288.6
1280.4
1311.7
1325.1
1290.2
1309.5
1279.5
1303.7
483.1
506.9
476.9
496.7
464.9
492.3
403.8
451.2
1246.4
1323.5
1980
2034.2
1337.2
1375.3
1988.7
1980
1283.7
1275.5
1304.9
1324.1
1294.1
1307.6
1272.7
1296.9
471.9
494.7
465.7
493
465.7
495.7
406.9
450.2
1229.9
1298.1
1942.6
1979
1292.5
1321.5
1943.5
1967.1
1271.1
1263.8
1300.9
1320.2
1286.3
1311.4
1275.6
1300.7
478.8
508.8
472.6
506.7
473.6
499.5
398.6
435.7
408.8
457.1
453.4
490.2
451.8
481.8
462.1
488.7
441.4
465.2
507.1
537.1
504.1
532.1
502.1
529
499
526
496
526
495
513.1
407.1
436.1
405.2
439.2
433.1
470.9
432.8
465.9
452.5
469.5
418.7
435.4
470.2
497.1
464
490.9
456.5
482.1
453.8
481.1
451.1
475
445
473.3
371
407.1
1161.7
1225
1859
1889
1215.5
1250.4
1872.6
1896.2
1218.5
1221
1262.1
1293
1259.1
1283.2
1247.4
1271.6
460.9
489.2
454.8
482.9
451.1
483
380.7
415.1
1163.6
1232.8
1866.4
1890.9
1219.4
1249.4
1873.8
1903.8
1224.2
1220.9
1262.9
1289
1257.1
1275.4
1237.4
1265.2
460.3
485.9
453.2
481.5
448.8
477.9
373.8
412.7
1163.6
1244.6
1875.5
1929.4
1246.7
1285.5
1913.9
1950.3
1248.6
1226.7
1262
1288
1246.4
1268.4
1241.5
1266.2
458.6
487.7
446
471.5
441.5
474.2
381.7
421.9
1196.7
1274.7
1913.2
1948.7
1269.1
1299.1
1924.2
1960.6
1247.6
1233.5
1274.6
1304.6
1273.7
1304.6
1268.8
1292.9
476.9
502.8
471.9
500
462.3
489.6
386.3
422.8
1186
1249.4
1884.8
1920.3
1250.6
1269.8
1884.8
1909.3
1230.1
1222.8
1262
1291
1256.1
1286.1
1251.2
1280.3
467.8
493.8
463.8
485.9
454.2
484.2
381.9
419.7
392.8
429
413.3
443.3
412.3
437.3
418.2
447.7
399
425.9
466.9
492.8
461.1
488.4
457.5
486.7
454
482.3
452.3
481.3
452.3
470.8
367.5
404.6
379
413.4
397.8
433.1
400
433.1
418.6
441.8
404
431.9
480
513.1
476.9
507.8
477.8
504.8
474.8
500.7
470.7
500.7
471.7
502.6
400.7
427.6
1190.8
1263.9
1901.5
1930.6
1261.2
1287.3
1919.9
1949.9
1257.3
1249.1
1289.2
1314.3
1284.3
1314.3
1284.3
1314.3
496
526.9
497.9
527.9
493.8
523.8
422.9
459.1
1241.5
1304.8
1933.8
1970.2
1279.7
1304.8
1922.8
1935.4
1248.5
1251
1296
1321.1
1302.8
1332.8
1291.1
1321.1
509.1
540
501.9
536
510
540
457.1
471.2
1238.5
1296
1929.3
1963.8
1269
1264.9
1882.2
1912.2
1221.3
1223.8
1258
1281.2
1239.6
1266.4
1231.2
1255.9
445.2
472.5
442.5
469.8
438.9
468.9
363.9
396.5
1141.6
1201.2
1818.4
1852.4
1182.7
1215.8
1833.9
1856.5
1179.4
1248.5
1216.3
1246.3
1216.3
1243.2
1213.2
1240.1
438.1
468.1
437.1
465.4
417
447
342
370.3
1110.1
1169.7
1782.6
1814.7
1137.6
1169.7
1779.8
1809.8
1132.6
1207.3
1177.3
1207.3
1177.3
1209.5
1179.5
1210.1
408.9
438.9
411.2
438.9
411.2
438.9
336.2
366.2
338
368.6
348
382
342
372
350.3
380.3
342
447
418.8
448.8
418.8
467.1
418.8
448.8
437.1
467.1
418.8
448.8
418.8
448.1
343.1
373.1
343.1
377.2
375.6
408.3
376.1
407.9
389.6
419.6
377.9
481.1
449.4
476.7
442.3
449.9
419.9
445.8
414
444
412.3
444.7
414.7
444.7
339.7
372
1138.4
1198.1
1826.8
1859.9
1187
1230.9
1840.6
1862
1187
1256.1
1218.7
1245.6
1210.3
1243.4
1189.4
1217.2
418.8
444.7
418.8
447
417
448.8
364.8
403.6
1156.4
1223.1
1850.6
1891.6
1213.6
1261.1
1893.9
1918.4
1228.2
1295.9
1250.3
1280.3
1244.4
1266.4
1233.3
1264.3
452.3
477.9
450.6
476.2
443.5
473.5
373.8
408.2
1154
1227.9
1848
1890
1233
1267.9
1894.8
1912.9
1217.4
1284.2
1249.3
1273.5
1244.4
1263.3
1231.2
1255.9
450.6
477.9
450.6
483.2
447.9
476.2
376.5
414.4
1164.6
1226.9
1859
1889
1206.7
1236.7
1854.5
1873.5
1193
1265.2
1236.2
1266.2
1234.1
1261.9
1231.9
1258.8
457.8
488.8
458.8
488.8
458.8
488.8
383.8
419.9
1172.3
1267.8
1894.1
1924.1
1265.1
1310.7
1923.5
1948
1233.9
1280.2
1250.2
1275.3
1244.4
1272.4
1234.3
1259
451.3
472.3
422.2
449.2
415.1
440.4
337.8
374.2
350
381.8
384.2
417.7
377.7
412.1
392.1
422.1
377.7
478.4
445.8
472.3
438.9
448.1
418.1
440
412.3
442.3
408.2
440
408.2
435.9
335.6
373.8
368.3
407.1
394.9
431.7
399.2
432.3
413.8
440.4
395.2
488.2
454.8
480.4
450.4
474.2
444.2
474.2
435.4
467.1
413
443
413
443
358.7
400.2
1162.6
1247.4
1881.9
1934.8
1252.6
1276.7
1889.3
1909.3
1224.2
1285.2
1245.4
1269.6
1234.3
1262.1
1220.6
1256.9
454.2
485.2
454.2
485.2
459.6
489.6
387.3
419
1179.1
1257.1
1869.3
1899.3
1210.5
1256.2
1880.3
1904.8
1220.3
1292.9
1267.8
1296.9
1239.6
1267.4
1234.3
1264.3
456.7
485
452.3
476.9
445.2
472.5
370.2
402.9
1152.1
1218
1847.1
1888.1
1215.5
1229.9
1846.1
1869.7
1188.2
1261.4
1229.3
1257.1
1224
1254
1218.7
1243.4
440.6
450.5
418.1
446.4
412.3
440
337.3
375.5
1123
1182.7
1821.7
1853.9
1186.3
1214.1
1828.2
1858.2
1180.1
1253.3
1202.3
1230.2
1198
1220.9
1188.1
1215.9
418.1
448.1
414
444
414.7
447
343.1
395.6
1141.8
1206.7
1827
1861.3
1180.1
1215.3
1827.2
1855.1
1159.1
1234.5
1199.5
1225.2
1190.3
1215.3
1183.1
1208.2
407
437
407
434.6
402.9
432.9
327.9
364.3
339.9
371.7
353.4
387.5
341
375.1
348.7
378.7
334.6
412.2
377.1
405.3
371.9
400.2
366.7
395
365
395
365
395
365
395
290
321.7
296.9
330.3
313.8
347.2
303.8
335.5
317.2
343.8
302.1
403.6
370.2
396.7
365
395
365
395
365
395
365
395
365
395
290
321.7
1067.2
1127.7
1743.7
1804.7
1129.7
1166.8
1781.8
1811.8
1131.8
1207.2
1177.8
1202.8
1171.8
1202.4
1172.4
1200.8
401.6
431.6
401.6
432.2
402.2
432.2
328.9
365.4
1111.8
1176.4
1804.1
1860.3
1211.7
1241.7
1871.6
1901.6
1206.8
1274.5
1233.8
1261.6
1228.5
1254.2
1218.9
1246.8
423.9
452.2
418.1
441.7
416.4
444
343.8
400
1149
1224.1
1857.1
1910
1241.8
1270.9
1892.9
1900
1211.6
1279.3
1244.4
1267.4
1229
1261.2
1216.6
1251.8
444.2
467.1
439.8
465.4
415.3
447
342
399.2
1150.9
1220.1
1859
1906.4
1242.8
1277.7
1888.4
1918.4
1237.9
1310.5
1269.8
1299.8
1259.1
1279.3
1244.4
1268.6
454.8
479.4
425.7
451.6
418.6
446.9
341.9
375.9
1121.1
1182.9
1797.9
1827.2
1157.2
1187.2
1802.2
1829.4
1147.9
1215.5
1183.4
1208.4
1175.6
1175.2
1144.2
1172.2
368.4
396.7
365
395
365
395
291.7
326.9
326.6
367.8
350.1
381.9
344.2
377.2
375.6
405.6
363.9
470.6
440.6
470.6
441.5
471.5
444.2
474.2
445.2
475.2
447.9
475.2
447.9
476.2
371.2
402.1
367.7
403.1
391.9
423.6
393.8
437.1
411.4
441.4
384.2
478.4
427.4
452.7
417.9
443.8
411.5
438
408
433.9
403.9
427.5
402.2
429.9
327.2
359.6
1107.5
1170
1789.3
1821.4
1151.4
1188.5
1802.8
1827.9
1143
1226.7
1186.2
1210.6
1172.4
1204.1
1174.1
1198.8
370.2
398.4
365
396.7
365
396.7
291.7
357.2
1105.4
1170.6
1795.5
1844.3
1152.7
1182.7
1797.7
1825.5
1147.7
1225.8
1193.7
1223.7
1191.5
1219.4
1191.5
1238.2
438.9
468.9
438.9
472.5
442.5
473.5
370.2
403.8
1152.8
1212.5
1828.4
1859.4
1185.4
1218.5
1836.6
1872.8
1195.7
1281.2
1257
1292.8
1262.8
1292.8
1272.6
1302.6
485.7
515.7
476.7
495.9
465.9
494.2
389.2
421.9
1180.1
1257.1
1890.3
1891.6
1213.6
1244.6
1850.6
1884.2
1167.7
1240.9
1210.9
1236
1203.8
1231.7
1196.7
1223.9
419.7
447.3
413.2
439.1
409.1
435
330
364.8
1116.8
1181.4
1802
1834.1
1159.1
1186.3
1802.8
1825.1
1145.1
1218.3
1185.5
1213.4
1180.6
1208.4
1173.5
1201.8
371.9
398.4
368.4
398.4
366.7
398.4
295.2
355.9
328.3
362.4
345.8
380.6
340.6
377
352.9
381.9
340.8
448.1
415.8
445.8
411
443.4
411.7
444
411
445.8
415.8
446.4
418.8
467.1
362.1
397.5
371.9
404.6
384.6
420.7
383.4
417.8
402.2
427.8
385.1
482.3
451.5
483.2
451.5
478.8
447.1
476.2
443.5
472.5
417
463.7
415.3
463.7
360.4
398.3
1144.9
1207.7
1827
1857
1185.1
1212.9
1833.2
1860.1
1182.9
1257.3
1225.2
1247.8
1214.6
1221.5
1189.4
1219.4
414.7
440
405.9
435.9
408.2
431.8
326.8
373.8
1141.6
1209.6
1850.6
1892.6
1231.1
1260.2
1891.9
1910
1203.8
1281.3
1257.2
1263.6
1226.1
1259.3
1221.8
1250.9
443.3
471.5
416.4
447
418.8
467.1
337.3
397.5
1153.1
1220.1
1852.6
1888.1
1210.6
1240.6
1847.1
1863.9
1186.8
1262.1
1230
1257.8
1224.7
1255.7
1228.8
1256.6
450.8
478.1
443.7
473.7
441
473.7
368.7
405.8
1159.1
1220.6
1835.6
1901.2
1223.2
1253.2
1872.2
1871.9
1194.7
1272.2
1250.2
1287
1251.2
1286
1256
1281.2
473.6
503.6
473.6
503.6
467.8
503.6
398.6
428.6
1191.8
1255.1
1884.1
1913.2
1234.9
1269.8
1895.1
1919.6
1233.9
1306.5
1276.5
1301.7
1277.5
1307.5
1279.5
1302.7
485.2
511.1
478.3
501.1
465
489.2
380.7
413.4
386.9
414.2
393.2
423.2
385.9
410.5
388.8
416.1
372.5
459.1
426.8
456.1
424.4
450.3
417.9
444.9
413.2
440.8
409.1
435.7
405.7
430.9
326.6
362.4
336.5
370.6
354.7
388.1
352.2
382.2
361.6
387.5
345.7
449
416.7
439.1
413.2
440.8
407.4
430.9
371.9
400.2
368.4
395
365
395
290
350.8
1101.9
1166.5
1788.6
1825.7
1150.1
1185
1793.6
1824.2
1147.7
1228
1198
1225.8
1195.8
1223.7
1191.5
1221.5
415.8
447.5
419.9
450.5
420.5
467.1
362.1
400.2
1147.6
1208.2
1823.2
1853.2
1172.9
1202.9
1817.9
1844.8
1171.9
1244.2
1216.3
1241.1
1210.1
1241.1
1204.8
1235.8
432
462
432
463.7
433.7
462
358.7
388.7
1128.9
1191.6
1808.8
1841.9
1164.7
1200
1825.6
1855.6
1178.4
1249.7
1217.5
1239.1
1214.4
1241.3
1211.3
1238.2
438.1
468.1
439.1
469.1
436.4
468.1
364.1
396.7
1138.2
1201
1816
1849.1
1171.9
1201.9
1816.9
1852.2
1177.2
1257.8
1224.7
1252.6
1224.7
1251.6
1216.6
1225.2
421.6
450.9
420.9
453.3
422.7
450.9
345.9
377
1123.9
1180.7
1797.9
1830
1150.1
1180.1
1789.5
1814.6
1136.8
1212.1
1179.3
1209.9
1151.6
1179.4
1147.2
1176.2
375.3
403.6
371.9
401.9
371.9
403.6
298.6
332.1
303.8
335.5
317.2
374.6
334.6
364.6
317.2
345.5
303.8
405.3
373.6
401.9
370.2
398.4
366.7
396.7
365
395
365
395
365
395
290
320
296.9
357.7
343.5
382.3
350.5
382.2
364.6
393.9
350.5
453.1
417.3
439.8
411.5
439.8
405.7
437.4
409.8
435.7
403.3
430.9
403.3
429.2
330.7
369.5
1116.8
1187
1825.1
1872.3
1200.9
1235.8
1858.7
1876.8
1194.1
1261.9
1227.6
1253.3
1188.1
1215.9
1190.3
1210.6
406.8
405.3
378.8
405.3
370.2
395
290
321.7
1068.2
1127.7
1770.3
1805.9
1133.1
1165.9
1778.7
1806.6
1128.8
1206.3
1174.1
1204.1
1174.1
1203.1
1174.8
1204.8
398.1
398.4
407
436.3
407
429.9
323.1
362
1115.9
1195
1812.1
1843.1
1168.1
1198.1
1816.2
1846.2
1171.2
1249.7
1219.7
1249.7
1220.6
1251.6
1221.6
1251.6
448.8
481.5
451.5
482.5
452.5
482.5
380.2
411.9
1155.9
1213.4
1829.4
1859.4
1184.4
1215.4
1835.6
1862.5
1185.4
1266
1239.1
1266
1239.1
1270
1240
1272.2
466.9
491.5
457.8
478.8
444.2
470.6
344.9
374.9
1114.6
1177.1
1792.9
1822.3
1151
1181
1793.2
1818.2
1138.3
1185.9
1153.7
1181.6
1149.4
1177.2
1145.2
1172.2
371.9
395
368.4
398.4
366.7
396.7
290
321.7
298.6
332.1
341.1
345.5
332.8
365.2
343.5
372.4
333.7
436.3
408.7
438.7
404.6
434.6
409.3
444
437.1
470.8
438.1
463.7
413
443
336.2
369.7
336
366.5
343.5
372.8
332.8
362.8
342.8
372.8
332.8
410.5
380.5
408.8
377.1
403.6
371.9
398.4
366.7
395
365
395
365
395
290
320
1066.6
1121.8
1738.8
1770.7
1095.7
1124.7
1740.7
1767.8
1093
1172.8
1142.8
1174
1145.2
1175.2
1146.3
1177.5
365
395
365
395
365
395
290
320
1069
1124.1
1737.8
1770.7
1098.7
1129.7
1744.7
1773.7
1096.7
1174.2
1144.2
1174.2
1143.2
1172.2
1140.3
1170.3
365
395
365
395
365
395
290
320
1064.3
1126.7
1743.7
1804.7
1104.1
1161.8
1774.7
1802.5
1127.5
1175.2
1145.2
1173.2
1143.2
1173.2
1142.2
1171.6
365
395
365
395
365
395
290
320
1092.8
1157.3
1785.6
1840
1174.3
1207.4
1822.4
1850.3
1170
1242.2
1203.9
1237
1207
1234.8
1182.9
1208
404.8
439.5
402.4
432.4
401.8
427.7
326.8
357.4
1098
1157.1
1817.2
1852.4
1188
1224.1
1839.7
1862
1181.8
1256.1
1220.9
1242.5
1212.5
1240.3
1210.3
1238.2
437.1
467.1
418.8
448.8
417
447
342
372
369.2
406.3
388
422.5
383.4
409
381.2
406.7
358.7
441.2
408.9
436.5
403.5
431.1
400.5
428.1
396.4
425.8
395.8
396.7
366.7
395
290
320
290
320
300
338.6
302.1
335.5
317.2
342.1
293.4
398.4
366.7
395
365
395
365
395
365
395
365
395
365
395
290
320
1069
1123
1737.8
1769.7
1094.7
1153.3
1768.9
1769.7
1121.3
1197.8
1167.8
1197.8
1169.5
1200.5
1169.5
1201.1
396.4
427.1
396.4
427.1
397.7
436.5
407.1
363.9
1102.3
1159.8
1780.4
1831.4
1156.4
1186.4
1801.4
1804.8
1129.8
1212.3
1177.3
1207.3
1176.3
1207.3
1178
1206.3
404.8
434.8
404.8
432.4
404.8
434.8
404.8
362.1
1101.3
1160.5
1774.8
1810.4
1154.2
1187.3
1805.4
1838.6
1163.6
1245.1
1215.1
1244.2
1215.1
1245.1
1213.2
1240.1
437.1
446.4
414
441.7
408.7
436.3
403.9
358.9
1099.8
1160.1
1774.4
1806.6
1130.9
1158.1
1775.3
1803.1
1126
1200.8
1170.8
1200.8
1169.8
1199.8
1169.8
1174.2
373.6
401.9
370.2
395
366.7
398.4
371.9
328.6
1096.8
1158.1
1775.9
1808.1
1135.9
1165.9
1780.9
1808.1
1130.9
1205.6
1172.8
1201.8
1145.2
1173.2
1142.2
1171.3
365
395
365
395
365
395
365
320
295.2
355.9
340
376.5
336.5
370.6
350.6
374.8
332.4
430.9
371.9
429.2
397.5
395
365
395
365
395
365
395
365
395
365
320
290
352.5
343
377.1
340.6
372.3
352.3
380.6
330.7
433.3
405.7
433.9
368.4
398.4
366.7
398.4
366.7
395
365
395
365
395
365
320
1065.3
1154.6
1773.8
1810.9
1140.8
1177.9
1795.1
1818
1142.3
1207.8
1176.3
1202.4
1173.5
1200.8
1169.8
1173.2
371.9
400.2
370.2
398.4
368.4
396.7
365
320
1067.2
1125.7
1768.9
1798.9
1128.8
1156.6
1769.9
1798.9
1094.7
1172.2
1141.3
1170.3
1140.3
1172.2
1140.3
1169.3
365
395
365
395
365
395
365
350.8
1093.8
1153
1770.6
1801.6
1129.4
1162.2
1786.2
1816.2
1139.1
1216.6
1189.4
1219.4
1191.5
1238.2
1206
1236
435.4
447
417
443
417
441.2
410.6
368
1112.2
1190.7
1808.8
1848.4
1178.6
1207.7
1819.6
1847.4
1141.2
1221.5
1208.2
1219.4
1187.2
1217.2
1182.3
1212.3
410.6
440.6
410.6
440.6
408.9
438.2
408.2
363.2
1110.1
1169.7
1805.7
1840.9
1174.3
1206.5
1821.5
1849.3
1171.2
1246.6
1216.6
1241.3
1211.3
1236
1187.2
1236
435.4
465.4
415.3
441.2
413
445.3
417
388.7
361.4
400.2
389
425.1
386.9
415.1
390.7
418
378
481.3
448.6
475.2
447.9
475.2
445.2
473.5
446.2
477.9
443.5
476.2
446.2
473.5
440.8
398.5
375.6
412.7
394.4
433.1
395.9
425.9
398.8
423.4
375.6
472.5
442.5
469.8
439.8
468.1
438.1
468.1
438.1
468.1
439.1
469.1
440
470
437.3
395
1133.9
1194.5
1812.6
1847.9
1176
1214.4
1836.8
1864.7
1183.4
1269.3
1239.3
1271.2
1239.1
1272.2
1245.3
1281.2
477.6
510.7
465.9
487.7
455
479.6
446
400
1141.8
1184.8
1802
1834.1
1177.9
1205.8
1799.8
1829.8
1149.9
1224.6
1194.6
1222.4
1192.4
1220.3
1187.5
1214.7
414.5
442.1
410.4
438
405.7
433.9
399.9
354.9
1099.1
1159.4
1778.7
1808.7
1133.7
1169.3
1779.4
1804.4
1129.4
1207.6
1180.4
1210.4
1181
1206.7
1178.8
1212.3
412.3
444
414.7
447
436.4
466.4
439.1
396.7
1138.2
1196.7
1816.9
1847.9
1172.9
1202.9
1817.9
1847.9
1173.9
1253.5
1226.6
1253.5
1221.4
1250.4
1214.2
1244.2
442.7
470
440
467.3
436.4
468.1
408.2
358.9
1096.4
1153.9
1768.3
1798.3
1124.3
1154.3
1771
1773.7
1096.7
1173.2
1142.2
1170.3
1139.3
1171.6
1142.8
1172.8
365
395
365
395
365
395
365
320
290
320
300
330
290
320
300
330
290
395
365
395
365
395
365
395
365
395
365
395
365
395
365
320
290
320
301.7
333.4
293.4
326.9
306.9
333.4
291.7
395
365
395
365
395
365
395
365
395
365
395
365
395
365
320
1065.5
1122.8
1766.3
1803.8
1133.7
1163.7
1783.7
1813.7
1136.5
1214
1181.9
1217.5
1182.5
1220.9
1180.4
1221.5
441.5
467.1
418.8
448.8
438.1
470.8
440.8
395.8
1143.5
1195.7
1817.9
1847.9
1176
1209.1
1829.4
1859.4
1184.4
1261.9
1230.9
1260.9
1225.7
1244.2
1211.1
1244.2
440
465.6
435.6
462
434.6
460.2
430.2
389.6
1129.8
1188.3
1803.3
1838.6
1172.9
1202.9
1821
1848.9
1173.9
1256.6
1226.6
1256.6
1226.6
1263.8
1239.1
1270
481.7
504.6
481.7
513.8
483.8
513.8
486.9
441.9
1196.7
1254.2
1884.1
1908.6
1225.1
1254.2
1884.1
1906.7
1206.6
1290
1242.4
1282.2
1238.4
1265.2
1235.2
1260.9
456.9
484.2
451.5
481.5
447.1
477.1
440
397.7
1140.1
1203.9
1812.6
1858.4
1184.4
1219.7
1834.7
1864.7
1184.4
1262.9
1236
1269.1
1227.6
1259.7
1232.9
1262.9
444.2
449.2
418.6
446.9
413.8
443.2
410.8
365.8
334.8
366.5
348.8
382.3
340.6
368.8
351.2
377.8
337.1
442.1
412.8
442.8
413.4
445.1
411.7
438.9
406.5
434.8
407.1
438.9
409.5
438.9
409.5
364.5
357
392.3
375
407.7
373.1
405.8
390.2
420.2
382.8
487.8
457.8
485.9
417
442.3
406.3
431.6
371.9
400.2
368.4
395
365
395
365
320
1064.3
1123.8
1738.8
1768.8
1092.8
1122.8
1737.8
1768.8
1093.8
1172.2
1140.3
1170.5
1142.8
1172.8
1142.8
1172.8
365
395
365
395
365
420.6
394.7
352.1
1095.8
1154.9
1770.5
1800.5
1120.6
1149
1763.4
1793.4
1118.4
1195.9
1166.5
1197.5
1168.5
1198.5
1140.3
1170.5
392.3
395
365
395
365
424.7
394.7
351.4
1094.1
1153.3
1769.2
1799.2
1124.2
1155.9
1771.5
1801.5
1127.5
1205
1176.7
1207.3
1177.3
1207.3
1177.3
1204.6
404.8
434.8
404.8
434.1
401.8
431.8
404.1
359.8
1099.6
1156.8
1770.2
1802.9
1127.3
1157.3
1772.3
1802.3
1124.9
1201.4
1169.8
1199.8
1143.2
1173.2
1142.2
1172.2
